wavelength flux
3065.3696 6.42205e-17
3067.3159 -2.8667e-17
3069.2627 5.5488e-17
3071.2104 3.64317e-17
3073.1584 5.22102e-17
3075.1072 -4.35266e-17
3077.0566 1.26512e-17
3079.0066 1.01089e-16
3080.957 8.94991e-17
3082.9082 2.32173e-17
3084.8599 1.37672e-16
3086.812 6.56607e-17
3088.7649 3.3360100000000003e-18
3090.7185 5.35519e-17
3092.6726 8.32761e-17
3094.6272 4.35896e-17
3096.5825 2.47194e-17
3098.5383 2.89537e-17
3100.4949 6.60065e-17
3102.4519 3.242e-17
3104.4094 7.09809e-17
3106.3679 4.10942e-17
3108.3267 5.12902e-17
3110.2859 5.65338e-17
3112.2458 6.17461e-17
3114.2065 4.93183e-17
3116.1675 5.92417e-17
3118.1294 3.38226e-17
3120.0916 7.67734e-17
3122.0544 6.43507e-17
3124.0181 4.88673e-17
3125.9819 3.27886e-17
3127.9468 4.02752e-17
3129.9119 5.15437e-17
3131.8777 6.42268e-17
3133.844 7.75136e-17
3135.8108 4.19214e-17
3137.7783 3.87544e-17
3139.7466 5.85722e-17
3141.7151 6.64645e-17
3143.6843 4.89823e-17
3145.6543 1.40566e-17
3147.6245 3.38171e-17
3149.5955 5.06961e-17
3151.5669 8.60897e-17
3153.5391 5.25305e-17
3155.5117 7.07594e-17
3157.4851 5.68311e-17
3159.4587 5.13983e-17
3161.4331 6.44378e-17
3163.408 4.10816e-17
3165.3835 6.72804e-17
3167.3596 7.48524e-17
3169.3362 6.11862e-17
3171.3132 5.98881e-17
3173.291 6.49679e-17
3175.2693 6.12759e-17
3177.2483 5.82579e-17
3179.2275 6.22342e-17
3181.2075 6.49792e-17
3183.188 4.60556e-17
3185.1692 4.85244e-17
3187.1509 7.51165e-17
3189.1331 5.96975e-17
3191.1157 5.96195e-17
3193.0991 5.59321e-17
3195.083 5.57562e-17
3197.0674 4.37086e-17
3199.0522 6.13775e-17
3201.0378 5.91835e-17
3203.0239 5.1524e-17
3205.0105 7.26814e-17
3206.9978 6.40933e-17
3208.9854 6.43917e-17
3210.9736 7.92011e-17
3212.9624 8.20963e-17
3214.9519 4.11757e-17
3216.9417 6.43417e-17
3218.9321 6.28728e-17
3220.9231 4.83498e-17
3222.9146 6.29247e-17
3224.9067 7.56134e-17
3226.8994 6.28015e-17
3228.8926 6.75666e-17
3230.886 6.48168e-17
3232.8804 8.00199e-17
3234.875 8.26399e-17
3236.8704 4.92561e-17
3238.8662 7.44676e-17
3240.8625 6.2946e-17
3242.8596 6.47457e-17
3244.8569 5.89794e-17
3246.855 4.85772e-17
3248.8535 6.14824e-17
3250.8525 4.78637e-17
3252.8521 5.92642e-17
3254.8523 6.3926e-17
3256.8528 6.4031e-17
3258.854 4.71895e-17
3260.8557 5.84886e-17
3262.8579 6.48073e-17
3264.8606 6.03647e-17
3266.864 6.63681e-17
3268.8677 5.43209e-17
3270.8721 5.55311e-17
3272.877 6.12353e-17
3274.8821 5.65832e-17
3276.8882 5.35983e-17
3278.8945 4.95547e-17
3280.9016 4.5436e-17
3282.9089 5.60328e-17
3284.917 4.64397e-17
3286.9253 5.2991e-17
3288.9343 5.26122e-17
3290.9438 6.27838e-17
3292.9539 6.54573e-17
3294.9646 6.93916e-17
3296.9756 5.94512e-17
3298.9871 6.86517e-17
3300.9993 5.85857e-17
3303.0117 5.93339e-17
3305.0249 4.69052e-17
3307.0386 6.26947e-17
3309.0527 5.82164e-17
3311.0674 4.71188e-17
3313.0825 6.38718e-17
3315.0981 5.50431e-17
3317.1143 5.69234e-17
3319.1311 6.40148e-17
3321.1482 6.49183e-17
3323.166 7.52602e-17
3325.1841 5.81121e-17
3327.2029 5.66826e-17
3329.2219 5.74798e-17
3331.2417 5.34739e-17
3333.262 5.01342e-17
3335.2827 5.23766e-17
3337.3037 4.70142e-17
3339.3254 4.96331e-17
3341.3477 5.02294e-17
3343.3704 5.61018e-17
3345.3936 5.57577e-17
3347.4172 6.00878e-17
3349.4414 5.28852e-17
3351.4661 6.15766e-17
3353.4912 6.32432e-17
3355.5168 5.40326e-17
3357.543 5.18203e-17
3359.5696 5.85829e-17
3361.5967 6.01881e-17
3363.6245 4.99096e-17
3365.6526 6.02916e-17
3367.6812 6.3847e-17
3369.7102 5.66718e-17
3371.7397 5.65766e-17
3373.7698 5.97096e-17
3375.8003 5.04964e-17
3377.8313 5.16722e-17
3379.8628 5.49537e-17
3381.895 5.74877e-17
3383.9275 5.25841e-17
3385.9602 5.86596e-17
3387.9937 4.74712e-17
3390.0276 5.44115e-17
3392.062 4.98297e-17
3394.0969 5.94036e-17
3396.1323 4.84846e-17
3398.1682 4.56151e-17
3400.2043 5.20152e-17
3402.2412 5.19896e-17
3404.2783 4.75644e-17
3406.3162 4.97132e-17
3408.3542 5.00507e-17
3410.3931 5.23266e-17
3412.4321 4.67525e-17
3414.4717 4.99641e-17
3416.5117 5.28663e-17
3418.5525 4.71026e-17
3420.5935 4.5616e-17
3422.635 4.86535e-17
3424.6768 5.12344e-17
3426.7192 4.90413e-17
3428.7622 5.62235e-17
3430.8054 5.46639e-17
3432.8494 5.5796e-17
3434.8936 5.43496e-17
3436.9382 4.81821e-17
3438.9834 4.56461e-17
3441.0293 4.9713e-17
3443.0752 4.82893e-17
3445.1218 5.09614e-17
3447.1689 5.33235e-17
3449.2163 4.8477e-17
3451.2644 4.10378e-17
3453.3127 5.26549e-17
3455.3616 5.01164e-17
3457.4109 5.08774e-17
3459.4607 4.69788e-17
3461.511 5.0723e-17
3463.5615 5.51279e-17
3465.6128 5.25889e-17
3467.6643 5.25245e-17
3469.7163 4.30927e-17
3471.7688 4.6298e-17
3473.8218 5.19297e-17
3475.875 5.18774e-17
3477.929 5.192e-17
3479.9832 4.35734e-17
3482.0378 5.30987e-17
3484.093 5.08273e-17
3486.1487 5.25256e-17
3488.2046 5.03513e-17
3490.2612 5.2871e-17
3492.3181 4.87794e-17
3494.3755 5.30762e-17
3496.4333 5.48093e-17
3498.4915 4.95687e-17
3500.5503 5.29604e-17
3502.6094 5.26909e-17
3504.6689 4.30088e-17
3506.729 4.28862e-17
3508.7893 5.25843e-17
3510.8501 4.46997e-17
3512.9116 5.13177e-17
3514.9734 4.818e-17
3517.0354 4.64018e-17
3519.0979 4.90656e-17
3521.1611 5.17955e-17
3523.2246 4.12475e-17
3525.2883 5.5706e-17
3527.3528 5.03318e-17
3529.4175 4.919e-17
3531.4827 4.97555e-17
3533.5483 4.92874e-17
3535.6143 4.65662e-17
3537.6809 5.06058e-17
3539.7478 4.75046e-17
3541.8149 4.79152e-17
3543.8828 4.87563e-17
3545.9509 4.57344e-17
3548.0195 4.54578e-17
3550.0884 4.88452e-17
3552.158 5.16871e-17
3554.2278 5.27773e-17
3556.2981 5.20935e-17
3558.3687 4.29657e-17
3560.4397 5.01785e-17
3562.5112 4.59511e-17
3564.583 4.65084e-17
3566.6555 4.94269e-17
3568.7283 5.19422e-17
3570.8015 4.84059e-17
3572.875 5.03383e-17
3574.949 5.38911e-17
3577.0232 5.26497e-17
3579.0981 4.57757e-17
3581.1733 4.73666e-17
3583.249 5.12592e-17
3585.325 5.03645e-17
3587.4016 4.29725e-17
3589.4783 5.31726e-17
3591.5557 4.96572e-17
3593.6333 4.70909e-17
3595.7112 4.46058e-17
3597.7898 4.70775e-17
3599.8687 5.2327e-17
3601.948 4.4526e-17
3604.0276 5.16943e-17
3606.1077 4.83885e-17
3608.188 4.58613e-17
3610.269 4.77417e-17
3612.3503 4.90004e-17
3614.4319 4.86702e-17
3616.5139 4.37166e-17
3618.5964 4.81476e-17
3620.6792 4.71167e-17
3622.7627 5.20655e-17
3624.8462 4.35914e-17
3626.9304 4.32741e-17
3629.0146 4.80426e-17
3631.0996 4.70268e-17
3633.1848 4.62994e-17
3635.2703 4.96384e-17
3637.3562 4.79625e-17
3639.4426 4.59115e-17
3641.5295 4.56194e-17
3643.6167 4.83406e-17
3645.7041 5.11288e-17
3647.792 4.52023e-17
3649.8804 4.62212e-17
3651.969 4.29815e-17
3654.0581 4.04534e-17
3656.1477 4.44111e-17
3658.2375 4.56829e-17
3660.3279 4.45532e-17
3662.4185 4.6945e-17
3664.5095 4.60287e-17
3666.6006 5.0776e-17
3668.6924 4.73961e-17
3670.7847 4.76338e-17
3672.8772 4.4503e-17
3674.97 4.5277e-17
3677.0632 4.81327e-17
3679.157 4.66211e-17
3681.251 4.05412e-17
3683.3452 4.4834e-17
3685.4399 4.53045e-17
3687.5352 4.93774e-17
3689.6306 4.90506e-17
3691.7266 4.53063e-17
3693.8228 4.68219e-17
3695.9192 4.55386e-17
3698.0164 4.71027e-17
3700.1135 4.72338e-17
3702.2112 4.70823e-17
3704.3093 4.98476e-17
3706.4077 4.0931e-17
3708.5066 4.90577e-17
3710.6057 4.42573e-17
3712.7053 4.89459e-17
3714.8052 4.59059e-17
3716.9055 4.59583e-17
3719.0061 4.627e-17
3721.1069 4.90402e-17
3723.2083 4.42955e-17
3725.3101 4.74897e-17
3727.4121 4.67244e-17
3729.5144 4.75859e-17
3731.6172 4.65554e-17
3733.7205 4.31956e-17
3735.8237 4.75835e-17
3737.9277 4.75375e-17
3740.0317 4.57629e-17
3742.1365 4.38352e-17
3744.2412 4.60889e-17
3746.3464 4.44626e-17
3748.4521 4.6304e-17
3750.5581 4.7627e-17
3752.6643 4.39668e-17
3754.771 3.87994e-17
3756.8779 4.68725e-17
3758.9851 4.51705e-17
3761.093 4.69884e-17
3763.2009 4.57099e-17
3765.3093 4.74765e-17
3767.418 4.44636e-17
3769.5271 4.26193e-17
3771.6365 4.15992e-17
3773.7461 4.32385e-17
3775.8562 4.57724e-17
3777.9668 4.27949e-17
3780.0774 4.70979e-17
3782.1885 4.77173e-17
3784.2998 4.99931e-17
3786.4116 4.83902e-17
3788.5237 4.63705e-17
3790.6362 4.69269e-17
3792.749 4.28122e-17
3794.8623 4.72853e-17
3796.9756 4.0678e-17
3799.0894 4.18921e-17
3801.2036 4.10917e-17
3803.3179 3.98725e-17
3805.4326 4.92674e-17
3807.5479 4.48858e-17
3809.6633 4.33931e-17
3811.7791 4.27502e-17
3813.895 4.09494e-17
3816.0115 4.3587e-17
3818.1284 4.74091e-17
3820.2454 4.85783e-17
3822.3628 4.82315e-17
3824.4805 4.14518e-17
3826.5984 4.27911e-17
3828.7168 4.23981e-17
3830.8357 4.65823e-17
3832.9546 4.25432e-17
3835.074 4.28227e-17
3837.1936 4.05326e-17
3839.3137 4.37125e-17
3841.4338 4.10633e-17
3843.5544 4.34349e-17
3845.6753 4.30217e-17
3847.7966 4.625e-17
3849.9182 4.63036e-17
3852.04 4.10511e-17
3854.1624 4.32937e-17
3856.2849 4.17667e-17
3858.4077 4.33302e-17
3860.5308 4.63082e-17
3862.6543 4.33053e-17
3864.7781 4.31275e-17
3866.9021 4.64646e-17
3869.0264 4.3949e-17
3871.1511 4.31679e-17
3873.2761 4.23407e-17
3875.4014 4.06589e-17
3877.5271 4.4281e-17
3879.6528 4.24437e-17
3881.7793 4.2257e-17
3883.9058 4.50886e-17
3886.0325 4.33562e-17
3888.1597 4.40854e-17
3890.2871 4.23895e-17
3892.4148 4.09537e-17
3894.543 3.93091e-17
3896.6711 4.57461e-17
3898.7998 4.23146e-17
3900.9287 3.95815e-17
3903.0581 4.28586e-17
3905.1875 4.19766e-17
3907.3174 3.93048e-17
3909.4475 3.89211e-17
3911.5779 4.52769e-17
3913.7085 4.04611e-17
3915.8396 3.99322e-17
3917.9709 3.74311e-17
3920.1025 4.34294e-17
3922.2344 3.67643e-17
3924.3667 4.0362e-17
3926.499 4.26213e-17
3928.6318 4.1748e-17
3930.7649 3.86834e-17
3932.8982 4.38515e-17
3935.032 4.45891e-17
3937.1658 3.97517e-17
3939.3 4.07438e-17
3941.4346 4.17341e-17
3943.5691 4.01693e-17
3945.7043 3.74222e-17
3947.8396 4.0139e-17
3949.9753 4.22893e-17
3952.1111 4.51457e-17
3954.2473 4.22768e-17
3956.3838 4.36947e-17
3958.5205 4.58801e-17
3960.6577 4.45828e-17
3962.7949 4.10209e-17
3964.9326 4.13281e-17
3967.0703 4.24364e-17
3969.2085 4.42422e-17
3971.3469 3.7705e-17
3973.4856 4.30741e-17
3975.6245 4.59435e-17
3977.7639 4.25373e-17
3979.9033 4.20122e-17
3982.0432 4.24146e-17
3984.1831 4.16412e-17
3986.3235 4.27875e-17
3988.4641 4.70418e-17
3990.605 4.46533e-17
3992.7461 4.06472e-17
3994.8875 4.12068e-17
3997.0293 3.81665e-17
3999.1711 4.24722e-17
4001.3132 4.19512e-17
4003.4558 3.74477e-17
4005.5986 4.09013e-17
4007.7417 3.63563e-17
4009.8848 3.52653e-17
4012.0283 3.63403e-17
4014.1721 3.99532e-17
4016.3162 4.00945e-17
4018.4604 4.18052e-17
4020.605 3.94428e-17
4022.75 3.84087e-17
4024.895 3.99145e-17
4027.0403 3.90172e-17
4029.186 3.66344e-17
4031.3318 4.04516e-17
4033.478 3.99979e-17
4035.6245 4.0258e-17
4037.771 4.0871e-17
4039.918 3.97505e-17
4042.0652 3.82712e-17
4044.2124 3.88032e-17
4046.3601 3.54755e-17
4048.5081 4.01817e-17
4050.6562 3.92904e-17
4052.8047 3.87911e-17
4054.9531 3.82419e-17
4057.1021 4.33627e-17
4059.2512 3.89404e-17
4061.4006 3.7075e-17
4063.5503 4.17334e-17
4065.7002 3.92139e-17
4067.8503 3.67843e-17
4070.0007 3.90309e-17
4072.1514 3.88637e-17
4074.3022 3.55394e-17
4076.4534 3.95444e-17
4078.6047 4.05015e-17
4080.7563 3.82663e-17
4082.9082 3.67133e-17
4085.0603 4.10039e-17
4087.2124 4.32102e-17
4089.365 3.78891e-17
4091.5178 3.99898e-17
4093.6709 3.77945e-17
4095.8242 3.87397e-17
4097.9775 3.9426e-17
4100.1313 3.82915e-17
4102.2852 3.95501e-17
4104.4395 3.64701e-17
4106.5942 3.52309e-17
4108.7485 3.62492e-17
4110.9038 3.32715e-17
4113.0586 3.78811e-17
4115.2139 3.7085e-17
4117.3696 3.94458e-17
4119.5254 3.80759e-17
4121.6816 3.93315e-17
4123.8379 3.69656e-17
4125.9946 3.48488e-17
4128.1509 3.62051e-17
4130.3081 3.45238e-17
4132.4653 3.9812e-17
4134.6226 3.44866e-17
4136.7803 3.93153e-17
4138.938 3.69405e-17
4141.0962 3.57934e-17
4143.2544 3.57552e-17
4145.4131 3.45759e-17
4147.5718 3.71597e-17
4149.731 3.4239e-17
4151.8901 3.65615e-17
4154.0493 3.55876e-17
4156.209 3.5384e-17
4158.3691 3.52062e-17
4160.5293 3.68688e-17
4162.6895 3.68824e-17
4164.8501 3.9932e-17
4167.0107 3.50265e-17
4169.1714 3.64914e-17
4171.3325 3.46711e-17
4173.4941 3.55863e-17
4175.6558 3.63166e-17
4177.8174 3.45591e-17
4179.9795 3.58942e-17
4182.1416 3.49812e-17
4184.3042 3.53837e-17
4186.4668 3.45621e-17
4188.6294 3.27113e-17
4190.7925 3.44979e-17
4192.9556 3.68813e-17
4195.1191 3.74971e-17
4197.2827 3.3531e-17
4199.4468 3.51052e-17
4201.6108 3.25754e-17
4203.7749 3.54721e-17
4205.9395 3.51725e-17
4208.1045 3.93813e-17
4210.269 3.44874e-17
4212.4341 3.58577e-17
4214.5996 3.28684e-17
4216.7651 3.52842e-17
4218.9307 3.62783e-17
4221.0967 3.49496e-17
4223.2627 3.34647e-17
4225.4292 3.70942e-17
4227.5957 3.68223e-17
4229.7622 3.52428e-17
4231.9292 3.82499e-17
4234.0962 3.31302e-17
4236.2637 3.32867e-17
4238.4307 3.52631e-17
4240.5986 3.25896e-17
4242.7666 3.53719e-17
4244.9346 3.33261e-17
4247.1025 3.57059e-17
4249.271 3.47102e-17
4251.4399 3.68045e-17
4253.6084 3.37539e-17
4255.7778 3.35574e-17
4257.9468 3.50304e-17
4260.1162 3.38802e-17
4262.2856 3.19456e-17
4264.4556 3.2188e-17
4266.6255 3.45205e-17
4268.7954 3.42608e-17
4270.9658 3.5126e-17
4273.1362 3.33755e-17
4275.3071 3.0515e-17
4277.478 3.10929e-17
4279.6489 3.35026e-17
4281.8203 3.48902e-17
4283.9917 3.35988e-17
4286.1631 3.38538e-17
4288.335 3.68033e-17
4290.5068 3.62806e-17
4292.6792 3.70195e-17
4294.8511 3.71525e-17
4297.0239 3.50477e-17
4299.1963 3.71839e-17
4301.3691 3.67409e-17
4303.5425 3.49528e-17
4305.7153 3.22014e-17
4307.8887 3.46269e-17
4310.0625 3.42898e-17
4312.2363 3.44881e-17
4314.4097 3.39236e-17
4316.584 3.26863e-17
4318.7583 3.37681e-17
4320.9326 3.37635e-17
4323.1074 3.53955e-17
4325.2817 3.26766e-17
4327.457 3.43682e-17
4329.6318 3.0137e-17
4331.8071 3.29903e-17
4333.9824 3.17752e-17
4336.1582 3.43933e-17
4338.334 2.9889e-17
4340.5098 3.20171e-17
4342.686 3.30549e-17
4344.8623 3.10272e-17
4347.0386 3.32442e-17
4349.2153 3.35296e-17
4351.3916 2.99391e-17
4353.5688 3.27136e-17
4355.7456 3.19831e-17
4357.9229 3.11517e-17
4360.1001 3.1359e-17
4362.2778 3.37398e-17
4364.4556 3.33771e-17
4366.6333 3.62904e-17
4368.8115 3.29965e-17
4370.9897 3.23111e-17
4373.168 3.29385e-17
4375.3462 3.45289e-17
4377.5249 2.98575e-17
4379.7036 3.11402e-17
4381.8828 3.26983e-17
4384.062 3.23649e-17
4386.2412 3.45158e-17
4388.4204 2.85122e-17
4390.6001 3.35449e-17
4392.7798 2.89137e-17
4394.9595 3.23888e-17
4397.1396 3.14651e-17
4399.3198 2.99995e-17
4401.5 3.44725e-17
4403.6807 3.0689e-17
4405.8613 3.17524e-17
4408.042 3.48118e-17
4410.2227 3.43875e-17
4412.4038 3.31264e-17
4414.585 3.42753e-17
4416.7666 3.44124e-17
4418.9478 3.122e-17
4421.1294 3.28197e-17
4423.3115 2.82943e-17
4425.4932 3.4461e-17
4427.6753 3.51557e-17
4429.8574 3.21344e-17
4432.04 3.06893e-17
4434.2222 3.26926e-17
4436.4048 3.23182e-17
4438.5879 3.32179e-17
4440.7705 3.93426e-17
4442.9536 4.74091e-17
4445.1367 5.41822e-17
4447.3203 5.5314e-17
4449.5034 4.71273e-17
4451.687 3.5522e-17
4453.8711 3.03694e-17
4456.0547 3.28695e-17
4458.2388 3.29547e-17
4460.4229 3.29725e-17
4462.6069 3.32143e-17
4464.7915 3.67982e-17
4466.9761 3.26433e-17
4469.1606 3.0689e-17
4471.3452 2.81837e-17
4473.5303 3.06818e-17
4475.7153 2.93501e-17
4477.9004 3.48287e-17
4480.0859 3.41239e-17
4482.2715 2.9763e-17
4484.457 3.34264e-17
4486.6426 3.67606e-17
4488.8286 3.35919e-17
4491.0142 3.52633e-17
4493.2002 2.8597e-17
4495.3867 2.98716e-17
4497.5728 2.91537e-17
4499.7593 3.25885e-17
4501.9458 3.32329e-17
4504.1328 3.66888e-17
4506.3193 3.36422e-17
4508.5063 3.6742e-17
4510.6934 3.64847e-17
4512.8804 3.64907e-17
4515.0679 3.51358e-17
4517.2554 3.65424e-17
4519.4429 3.10679e-17
4521.6304 3.27825e-17
4523.8184 3.26957e-17
4526.0059 3.37492e-17
4528.1943 3.23016e-17
4530.3823 3.09574e-17
4532.5703 2.9755e-17
4534.7588 3.39594e-17
4536.9473 3.48876e-17
4539.1357 3.75811e-17
4541.3247 3.50326e-17
4543.5132 3.5904e-17
4545.7021 3.79121e-17
4547.8911 3.80862e-17
4550.0806 3.65374e-17
4552.2695 3.53864e-17
4554.459 3.43926e-17
4556.6484 3.61218e-17
4558.8379 3.59027e-17
4561.0278 3.47021e-17
4563.2173 3.41071e-17
4565.4077 3.49791e-17
4567.5977 3.27382e-17
4569.7876 2.97563e-17
4571.978 2.59496e-17
4574.168 2.5795e-17
4576.3584 2.96921e-17
4578.5493 3.17197e-17
4580.7397 2.94185e-17
4582.9307 2.9075e-17
4585.1216 3.4807e-17
4587.3125 3.43845e-17
4589.5034 3.58588e-17
4591.6948 3.25061e-17
4593.8857 3.27757e-17
4596.0771 3.51994e-17
4598.2686 3.74543e-17
4600.4604 3.74741e-17
4602.6519 3.51448e-17
4604.8438 3.21344e-17
4607.0356 3.58627e-17
4609.2275 3.67241e-17
4611.4194 4.13424e-17
4613.6118 4.31172e-17
4615.8042 4.15576e-17
4617.9961 3.8927e-17
4620.189 3.49776e-17
4622.3813 3.51772e-17
4624.5737 3.37699e-17
4626.7666 3.59311e-17
4628.9595 3.42691e-17
4631.1523 3.23661e-17
4633.3452 3.1605e-17
4635.5386 3.18191e-17
4637.7314 3.04872e-17
4639.9248 3.23802e-17
4642.1182 3.49979e-17
4644.3115 3.07849e-17
4646.5054 3.20443e-17
4648.6987 3.19792e-17
4650.8926 3.19964e-17
4653.0864 3.19537e-17
4655.2803 3.29571e-17
4657.4741 3.25419e-17
4659.6685 3.36547e-17
4661.8623 3.49523e-17
4664.0566 3.70328e-17
4666.251 3.62364e-17
4668.4453 3.3588e-17
4670.6401 3.46679e-17
4672.8345 3.45382e-17
4675.0293 3.51502e-17
4677.2241 3.54708e-17
4679.4189 3.19042e-17
4681.6138 3.40618e-17
4683.8086 3.2649e-17
4686.0039 2.9891e-17
4688.1987 3.24507e-17
4690.394 2.73683e-17
4692.5894 2.66196e-17
4694.7847 2.87574e-17
4696.9805 3.02631e-17
4699.1758 2.93909e-17
4701.3716 3.11561e-17
4703.5669 3.26938e-17
4705.7627 3.1834e-17
4707.9585 3.26663e-17
4710.1548 3.30174e-17
4712.3506 3.30228e-17
4714.5469 3.25511e-17
4716.7427 3.44752e-17
4718.939 3.43096e-17
4721.1353 3.47092e-17
4723.3315 3.09017e-17
4725.5283 2.90124e-17
4727.7246 2.99987e-17
4729.9214 2.96462e-17
4732.1177 3.04194e-17
4734.3145 2.77074e-17
4736.5112 2.59522e-17
4738.7085 2.86153e-17
4740.9053 3.076e-17
4743.1021 3.23954e-17
4745.2993 3.29535e-17
4747.4966 3.07409e-17
4749.6934 3.60519e-17
4751.8906 3.32915e-17
4754.0884 3.45546e-17
4756.2856 3.5431e-17
4758.4829 3.68514e-17
4760.6807 3.462e-17
4762.8784 3.79537e-17
4765.0757 3.67667e-17
4767.2734 3.52482e-17
4769.4712 3.7361e-17
4771.6689 3.4617e-17
4773.8672 3.47549e-17
4776.0649 3.39956e-17
4778.2632 3.50425e-17
4780.4609 3.52105e-17
4782.6592 3.6355e-17
4784.8574 3.8026e-17
4787.0557 3.82517e-17
4789.2539 3.7783e-17
4791.4526 3.49403e-17
4793.6509 3.53777e-17
4795.8496 3.708e-17
4798.0479 3.54033e-17
4800.2466 3.7641e-17
4802.4453 3.43222e-17
4804.644 3.49367e-17
4806.8428 3.62513e-17
4809.0415 3.24616e-17
4811.2407 3.58983e-17
4813.4395 3.37855e-17
4815.6387 3.58726e-17
4817.8374 3.81211e-17
4820.0366 3.6801e-17
4822.2358 3.68796e-17
4824.4351 3.67488e-17
4826.6343 3.64067e-17
4828.8335 3.64035e-17
4831.0332 3.88483e-17
4833.2324 3.48563e-17
4835.4316 3.45445e-17
4837.6313 3.61264e-17
4839.8311 3.5441e-17
4842.0308 3.585e-17
4844.23 3.52484e-17
4846.4297 3.50839e-17
4848.6299 3.73073e-17
4850.8296 3.74032e-17
4853.0293 3.64645e-17
4855.2295 3.60515e-17
4857.4292 3.78507e-17
4859.6294 3.90933e-17
4861.8291 3.88182e-17
4864.0293 3.97681e-17
4866.2295 3.91241e-17
4868.4297 3.9716e-17
4870.6299 3.84467e-17
4872.8301 4.08956e-17
4875.0303 3.61297e-17
4877.2305 3.67633e-17
4879.4312 4.20481e-17
4881.6318 3.69882e-17
4883.832 3.66234e-17
4886.0327 3.7099e-17
4888.2329 3.64069e-17
4890.4336 3.53553e-17
4892.6343 3.53066e-17
4894.835 3.59254e-17
4897.0356 3.83205e-17
4899.2363 3.89567e-17
4901.437 3.67089e-17
4903.6382 3.79588e-17
4905.8389 3.70098e-17
4908.04 3.52286e-17
4910.2407 3.84002e-17
4912.4419 4.23304e-17
4914.6426 3.60755e-17
4916.8438 3.38341e-17
4919.0449 3.64983e-17
4921.2461 3.64015e-17
4923.4473 3.89355e-17
4925.6484 3.51069e-17
4927.8496 3.58303e-17
4930.0508 3.59359e-17
4932.252 3.46362e-17
4934.4531 3.64705e-17
4936.6548 3.61007e-17
4938.856 3.54921e-17
4941.0576 3.43904e-17
4943.2588 3.19284e-17
4945.4604 3.4016e-17
4947.6616 3.41422e-17
4949.8633 3.28696e-17
4952.0649 3.34618e-17
4954.2666 3.39587e-17
4956.4683 3.70073e-17
4958.6699 3.48364e-17
4960.8716 3.4456e-17
4963.0732 3.37737e-17
4965.2749 3.56087e-17
4967.4766 3.54452e-17
4969.6782 3.37488e-17
4971.8804 3.44006e-17
4974.082 3.6131e-17
4976.2837 3.5273e-17
4978.4858 3.14419e-17
4980.6875 3.06505e-17
4982.8896 3.62537e-17
4985.0918 3.10192e-17
4987.2935 3.44603e-17
4989.4956 3.35227e-17
4991.6978 3.11647e-17
4993.8999 3.51458e-17
4996.1016 3.19269e-17
4998.3037 3.57481e-17
5000.5059 3.3389e-17
5002.708 3.36951e-17
5004.9102 3.33086e-17
5007.1123 3.17435e-17
5009.3145 3.27523e-17
5011.5171 3.04082e-17
5013.7192 3.09072e-17
5015.9214 3.40285e-17
5018.1235 3.05695e-17
5020.3257 3.35872e-17
5022.5283 3.04212e-17
5024.7305 3.52864e-17
5026.9331 3.21658e-17
5029.1353 3.16409e-17
5031.3379 3.32328e-17
5033.54 3.40338e-17
5035.7427 3.38888e-17
5037.9448 3.36869e-17
5040.1475 2.86964e-17
5042.3501 2.88925e-17
5044.5522 3.46827e-17
5046.7549 3.48522e-17
5048.9575 3.3137e-17
5051.1597 3.07379e-17
5053.3623 3.36403e-17
5055.5649 3.07747e-17
5057.7676 3.18794e-17
5059.9702 3.09513e-17
5062.1729 3.12118e-17
5064.3755 3.48671e-17
5066.5781 3.1688e-17
5068.7808 3.30157e-17
5070.9834 3.39429e-17
5073.186 3.25746e-17
5075.3887 3.13068e-17
5077.5913 3.27776e-17
5079.7939 3.24814e-17
5081.9966 2.83545e-17
5084.1992 3.59435e-17
5086.4019 3.40234e-17
5088.605 3.35448e-17
5090.8076 3.25173e-17
5093.0103 2.91115e-17
5095.2129 2.8724e-17
5097.4155 3.08003e-17
5099.6187 3.35488e-17
5101.8213 3.22298e-17
5104.0239 3.13515e-17
5106.2266 3.02031e-17
5108.4297 3.14856e-17
5110.6323 3.26112e-17
5112.835 2.80415e-17
5115.0381 3.00567e-17
5117.2407 2.85579e-17
5119.4438 3.17853e-17
5121.6465 2.91938e-17
5123.8491 3.0807e-17
5126.0522 3.18318e-17
5128.2549 2.77006e-17
5130.458 3.04053e-17
5132.6606 3.09909e-17
5134.8633 2.98717e-17
5137.0664 3.10814e-17
5139.269 2.81489e-17
5141.4722 2.94119e-17
5143.6748 3.28427e-17
5145.8779 3.11049e-17
5148.0806 3.47092e-17
5150.2837 3.35181e-17
5152.4863 3.44203e-17
5154.689 3.18519e-17
5156.8921 3.38783e-17
5159.0952 2.95787e-17
5161.2979 3.09005e-17
5163.5005 3.11811e-17
5165.7036 3.09696e-17
5167.9062 3.04844e-17
5170.1094 3.48637e-17
5172.312 2.95824e-17
5174.5151 3.0671e-17
5176.7178 3.21536e-17
5178.9209 3.26229e-17
5181.1235 3.55288e-17
5183.3262 3.1092e-17
5185.5293 3.06665e-17
5187.7319 3.19712e-17
5189.9351 3.37847e-17
5192.1377 3.39838e-17
5194.3408 3.31303e-17
5196.5435 3.263e-17
5198.7461 3.5111e-17
5200.9492 3.28526e-17
5203.1519 3.39136e-17
5205.3545 3.49353e-17
5207.5576 3.26231e-17
5209.7603 2.95057e-17
5211.9629 3.52532e-17
5214.166 3.18692e-17
5216.3687 2.99944e-17
5218.5713 3.259e-17
5220.7739 3.39446e-17
5222.9771 3.82323e-17
5225.1797 2.97269e-17
5227.3823 3.16139e-17
5229.585 3.18363e-17
5231.7876 3.33566e-17
5233.9907 2.97583e-17
5236.1934 3.18279e-17
5238.396 3.01749e-17
5240.5986 3.0643e-17
5242.8013 3.0561e-17
5245.0039 3.29034e-17
5247.2065 2.96745e-17
5249.4092 3.04863e-17
5251.6118 2.95936e-17
5253.8145 3.15453e-17
5256.0171 3.06456e-17
5258.2197 3.04962e-17
5260.4224 2.82212e-17
5262.625 3.20719e-17
5264.8276 2.97307e-17
5267.0303 2.97978e-17
5269.2329 3.13829e-17
5271.4351 3.20512e-17
5273.6377 2.97767e-17
5275.8403 3.52043e-17
5278.043 3.28879e-17
5280.2456 3.05425e-17
5282.4478 3.3004e-17
5284.6504 3.29558e-17
5286.853 3.44766e-17
5289.0552 3.18713e-17
5291.2578 3.04073e-17
5293.46 3.52619e-17
5295.6626 3.18431e-17
5297.8647 3.2744e-17
5300.0674 3.12286e-17
5302.2695 3.42735e-17
5304.4722 3.28306e-17
5306.6743 3.10619e-17
5308.8765 3.5429e-17
5311.0791 3.50115e-17
5313.2812 3.34286e-17
5315.4834 3.23613e-17
5317.686 3.04668e-17
5319.8882 3.13767e-17
5322.0903 3.00025e-17
5324.2925 3.41147e-17
5326.4946 3.17538e-17
5328.6968 3.24478e-17
5330.8989 2.99573e-17
5333.1011 3.23691e-17
5335.3032 3.21055e-17
5337.5054 3.65226e-17
5339.7075 3.25544e-17
5341.9097 3.20287e-17
5344.1118 3.20808e-17
5346.3135 3.3608e-17
5348.5156 3.54301e-17
5350.7178 3.16452e-17
5352.9199 3.2371e-17
5355.1216 3.09619e-17
5357.3237 3.17805e-17
5359.5254 3.22231e-17
5361.7275 3.24486e-17
5363.9292 3.16983e-17
5366.1313 3.51864e-17
5368.333 3.25108e-17
5370.5347 3.22905e-17
5372.7368 3.30347e-17
5374.9385 3.42576e-17
5377.1401 3.3414e-17
5379.3423 3.37996e-17
5381.5439 3.32e-17
5383.7456 3.38465e-17
5385.9473 3.09283e-17
5388.1489 3.28351e-17
5390.3506 3.21146e-17
5392.5522 3.29472e-17
5394.7539 3.22405e-17
5396.9556 3.08973e-17
5399.1572 2.79005e-17
5401.3584 2.76553e-17
5403.5601 3.04303e-17
5405.7617 3.16055e-17
5407.9629 3.23817e-17
5410.1646 3.06667e-17
5412.3657 3.34378e-17
5414.5674 3.11293e-17
5416.7686 2.97602e-17
5418.9702 3.16057e-17
5421.1714 3.14123e-17
5423.3726 3.22036e-17
5425.5742 3.17423e-17
5427.7754 3.39689e-17
5429.9766 3.08822e-17
5432.1777 2.90484e-17
5434.3789 3.30666e-17
5436.5801 3.15792e-17
5438.7812 3.30201e-17
5440.9824 3.13756e-17
5443.1836 2.91361e-17
5445.3848 3.58223e-17
5447.5859 3.14456e-17
5449.7871 3.22863e-17
5451.9878 3.23478e-17
5454.189 3.18525e-17
5456.3901 3.46661e-17
5458.5908 3.37587e-17
5460.792 2.99764e-17
5462.9927 2.9285e-17
5465.1934 3.03605e-17
5467.3945 2.96729e-17
5469.5952 3.36168e-17
5471.7959 3.16802e-17
5473.9971 3.22702e-17
5476.1978 3.18251e-17
5478.3984 3.0413e-17
5480.5991 3.264e-17
5482.7998 3.29225e-17
5485.0005 3.27978e-17
5487.2012 3.44561e-17
5489.4014 3.30339e-17
5491.6021 3.2771e-17
5493.8027 3.5681e-17
5496.0034 3.66238e-17
5498.2036 3.3295e-17
5500.4043 3.30426e-17
5502.6045 3.38804e-17
5504.8052 3.47933e-17
5507.0054 3.51684e-17
5509.2061 3.2135e-17
5511.4062 3.38554e-17
5513.6064 3.83381e-17
5515.8071 3.70365e-17
5518.0073 3.22217e-17
5520.2075 3.28414e-17
5522.4077 3.45201e-17
5524.6079 3.58733e-17
5526.8081 3.33598e-17
5529.0083 3.18017e-17
5531.208 3.46269e-17
5533.4082 3.50665e-17
5535.6084 3.48291e-17
5537.8081 3.40147e-17
5540.0083 3.57165e-17
5542.2085 3.7369e-17
5544.4082 3.32248e-17
5546.6084 3.19085e-17
5548.8081 3.38248e-17
5551.0078 3.57057e-17
5553.208 3.33785e-17
5555.4077 3.35924e-17
5557.6074 3.4596e-17
5559.8071 3.66821e-17
5562.0068 3.18279e-17
5564.2065 3.14732e-17
5566.4062 3.82063e-17
5568.606 3.27775e-17
5570.8057 3.66699e-17
5573.0049 3.65783e-17
5575.2046 2.49633e-17
5577.4043 3.31053e-17
5579.604 2.58529e-17
5581.8032 4.02141e-17
5584.0029 3.0122e-17
5586.2021 3.68278e-17
5588.4014 3.68205e-17
5590.6011 3.73986e-17
5592.8003 3.58384e-17
5594.9995 3.13703e-17
5597.1987 3.53437e-17
5599.3984 3.46327e-17
5601.5972 3.27143e-17
5603.7964 2.78847e-17
5605.9956 3.00512e-17
5608.1948 3.64866e-17
5610.394 3.16381e-17
5612.5933 3.57593e-17
5614.7925 3.40024e-17
5616.9912 3.83874e-17
5619.1904 3.42233e-17
5621.3892 3.45235e-17
5623.5884 3.22731e-17
5625.7871 3.01881e-17
5627.9863 3.77822e-17
5630.1851 3.44961e-17
5632.3838 3.63741e-17
5634.5825 3.6234e-17
5636.7817 3.87212e-17
5638.9805 3.46046e-17
5641.1792 3.28258e-17
5643.3779 3.39069e-17
5645.5767 2.94026e-17
5647.7749 3.20646e-17
5649.9736 3.2279e-17
5652.1724 3.15421e-17
5654.3711 3.38844e-17
5656.5693 3.41191e-17
5657.2773 3.82131e-17
5658.4185 2.78758e-17
5659.5601 3.20777e-17
5660.7012 3.29118e-17
5661.8428 3.55448e-17
5662.9844 3.49183e-17
5664.1255 3.69341e-17
5665.2671 3.48343e-17
5666.4087 2.88142e-17
5667.5503 2.62095e-17
5668.6924 2.86349e-17
5669.834 3.65734e-17
5670.9756 2.83752e-17
5672.1177 2.63184e-17
5673.2593 2.7344e-17
5674.4014 3.75457e-17
5675.5435 3.64265e-17
5676.6855 2.77656e-17
5677.8276 3.38974e-17
5678.9697 3.53945e-17
5680.1118 3.02469e-17
5681.2544 2.97504e-17
5682.3965 3.23438e-17
5683.5391 3.07595e-17
5684.6812 3.10014e-17
5685.8237 3.89208e-17
5686.9663 2.66882e-17
5688.1089 2.80697e-17
5689.2515 3.20981e-17
5690.394 3.12276e-17
5691.5366 3.30189e-17
5692.6797 2.7197e-17
5693.8223 3.34213e-17
5694.9653 3.04255e-17
5696.1084 3.03864e-17
5697.251 3.5629e-17
5698.394 2.70772e-17
5699.5371 3.17824e-17
5700.6802 3.18504e-17
5701.8237 3.32458e-17
5702.9668 3.49152e-17
5704.1099 3.04079e-17
5705.2534 3.33442e-17
5706.3965 2.80135e-17
5707.54 3.43367e-17
5708.6836 3.04813e-17
5709.8271 3.82207e-17
5710.9707 2.95242e-17
5712.1143 3.07025e-17
5713.2578 2.47629e-17
5714.4014 3.3856e-17
5715.5454 3.63197e-17
5716.689 2.9721e-17
5717.833 3.15949e-17
5718.9766 3.13183e-17
5720.1206 3.54762e-17
5721.2646 2.80239e-17
5722.4087 3.35656e-17
5723.5527 2.9883e-17
5724.6973 3.31115e-17
5725.8413 3.27424e-17
5726.9854 3.47693e-17
5728.1299 3.26826e-17
5729.2744 3.27485e-17
5730.4185 2.9996e-17
5731.563 3.01705e-17
5732.7075 3.25427e-17
5733.8521 2.83182e-17
5734.9966 3.03291e-17
5736.1411 3.11918e-17
5737.2861 2.62323e-17
5738.4307 2.916e-17
5739.5752 3.77085e-17
5740.7202 3.04141e-17
5741.8652 3.15937e-17
5743.0103 3.29442e-17
5744.1553 2.97706e-17
5745.3003 2.99517e-17
5746.4453 3.14901e-17
5747.5903 3.24255e-17
5748.7354 3.17746e-17
5749.8804 3.1999e-17
5751.0259 3.50732e-17
5752.1714 3.31896e-17
5753.3164 2.85553e-17
5754.4619 3.28015e-17
5755.6074 3.07256e-17
5756.7529 3.37105e-17
5757.8984 2.97445e-17
5759.0439 3.05303e-17
5760.1899 3.12151e-17
5761.3354 3.29806e-17
5762.481 3.22543e-17
5763.627 3.42572e-17
5764.7729 2.67106e-17
5765.9185 3.13117e-17
5767.0645 3.41123e-17
5768.2104 3.46738e-17
5769.3564 3.16254e-17
5770.5029 3.33845e-17
5771.6489 3.65619e-17
5772.7949 3.38291e-17
5773.9414 2.88578e-17
5775.0874 2.78035e-17
5776.2339 3.12465e-17
5777.3799 3.28982e-17
5778.5264 3.14093e-17
5779.6729 3.28527e-17
5780.8193 2.99578e-17
5781.9663 3.1314e-17
5783.1128 3.04382e-17
5784.2593 3.31216e-17
5785.4058 3.30291e-17
5786.5527 3.05054e-17
5787.6997 3.0225e-17
5788.8462 3.34707e-17
5789.9932 3.36079e-17
5791.1401 2.70871e-17
5792.2871 3.82297e-17
5793.4341 3.58531e-17
5794.5811 3.76367e-17
5795.7285 3.76181e-17
5796.8755 4.12551e-17
5798.0225 4.19357e-17
5799.1699 3.7799e-17
5800.3174 3.32101e-17
5801.4644 3.44107e-17
5802.6118 3.47391e-17
5803.7593 3.14106e-17
5804.9067 3.47898e-17
5806.0542 3.00017e-17
5807.2017 2.7136e-17
5808.3496 3.11437e-17
5809.4971 3.16196e-17
5810.645 2.90701e-17
5811.7925 3.29713e-17
5812.9404 3.29794e-17
5814.0884 3.21534e-17
5815.2363 3.39876e-17
5816.3843 2.93975e-17
5817.5322 2.96996e-17
5818.6802 3.3416e-17
5819.8281 3.46704e-17
5820.9766 3.32665e-17
5822.1245 3.60357e-17
5823.2729 3.17196e-17
5824.4209 3.0859e-17
5825.5693 2.97245e-17
5826.7178 3.0834e-17
5827.8662 3.43979e-17
5829.0146 3.20676e-17
5830.1631 2.9078e-17
5831.3115 3.55734e-17
5832.46 2.69386e-17
5833.6089 3.24566e-17
5834.7573 2.97112e-17
5835.9062 2.79359e-17
5837.0552 3.43239e-17
5838.2036 2.85388e-17
5839.3525 2.93777e-17
5840.5015 3.30198e-17
5841.6504 3.26478e-17
5842.7993 3.12178e-17
5843.9487 2.7439e-17
5845.0977 3.5256e-17
5846.2466 3.15808e-17
5847.396 3.25603e-17
5848.5449 3.06127e-17
5849.6943 3.27582e-17
5850.8438 3.22902e-17
5851.9932 3.52219e-17
5853.1426 2.4582e-17
5854.292 3.13513e-17
5855.4414 3.79247e-17
5856.5908 3.22222e-17
5857.7407 2.85557e-17
5858.8901 2.80414e-17
5860.04 2.67925e-17
5861.1895 3.29331e-17
5862.3394 2.93167e-17
5863.4893 3.01324e-17
5864.6387 2.82322e-17
5865.7886 3.03616e-17
5866.9385 3.29299e-17
5868.0889 3.01049e-17
5869.2388 2.50038e-17
5870.3887 2.65006e-17
5871.5391 3.21792e-17
5872.689 2.93416e-17
5873.8394 2.99024e-17
5874.9893 2.78141e-17
5876.1396 3.26037e-17
5877.29 3.44513e-17
5878.4404 3.19839e-17
5879.5908 3.17291e-17
5880.7412 2.60499e-17
5881.8921 3.02173e-17
5883.0425 2.69946e-17
5884.1929 3.03394e-17
5885.3438 2.66603e-17
5886.4946 3.1733e-17
5887.645 2.623e-17
5888.7959 2.90426e-17
5889.9468 2.81639e-17
5891.0977 3.05134e-17
5892.2485 3.09741e-17
5893.3994 2.8862e-17
5894.5503 2.42002e-17
5895.7017 2.89382e-17
5896.8525 3.1152e-17
5898.0039 3.63822e-17
5899.1548 3.26656e-17
5900.3062 3.07282e-17
5901.4575 2.79787e-17
5902.6089 3.33988e-17
5903.7598 2.90679e-17
5904.9116 2.67378e-17
5906.063 3.77268e-17
5907.2144 3.41071e-17
5908.3657 3.73201e-17
5909.5176 4.74357e-17
5910.6689 4.95235e-17
5911.8208 5.34126e-17
5912.9722 5.50692e-17
5914.124 5.08045e-17
5915.2759 4.50363e-17
5916.4277 4.39135e-17
5917.5796 3.82445e-17
5918.7314 3.34005e-17
5919.8833 2.73285e-17
5921.0352 3.00172e-17
5922.1875 2.8151e-17
5923.3398 2.53574e-17
5924.4917 3.03575e-17
5925.644 2.98689e-17
5926.7959 2.76842e-17
5927.9482 2.85156e-17
5929.1006 3.14217e-17
5930.2529 3.44677e-17
5931.4053 2.63724e-17
5932.5576 2.44221e-17
5933.7104 2.78672e-17
5934.8628 3.0097e-17
5936.0151 2.3336e-17
5937.168 3.08873e-17
5938.3208 3.24642e-17
5939.4731 2.90758e-17
5940.626 2.99651e-17
5941.7788 2.68797e-17
5942.9316 2.89141e-17
5944.0845 2.81185e-17
5945.2373 2.96845e-17
5946.3901 3.00345e-17
5947.543 2.46595e-17
5948.6963 2.93074e-17
5949.8491 2.45018e-17
5951.0024 2.82531e-17
5952.1558 2.75323e-17
5953.3086 2.95899e-17
5954.4619 2.59285e-17
5955.6152 2.53464e-17
5956.7686 2.85818e-17
5957.9219 3.09927e-17
5959.0752 3.04003e-17
5960.229 2.84942e-17
5961.3823 3.138e-17
5962.5361 3.08996e-17
5963.6895 3.58723e-17
5964.8433 4.71515e-17
5965.9966 5.85355e-17
5967.1504 7.59401e-17
5968.3042 9.12742e-17
5969.458 1.07279e-16
5970.6118 1.02191e-16
5971.7656 9.10667e-17
5972.9194 7.34626e-17
5974.0737 5.89343e-17
5975.2275 4.43895e-17
5976.3813 3.63561e-17
5977.5356 2.92252e-17
5978.6899 2.896e-17
5979.8438 2.65321e-17
5980.998 2.66087e-17
5982.1523 2.61915e-17
5983.3066 2.87639e-17
5984.4609 2.76402e-17
5985.6152 2.71842e-17
5986.7695 2.72036e-17
5987.9243 3.11628e-17
5989.0786 2.69881e-17
5990.2334 3.27344e-17
5991.3877 2.75024e-17
5992.5425 2.58139e-17
5993.6973 2.51019e-17
5994.8516 2.57709e-17
5996.0063 2.28302e-17
5997.1611 3.20784e-17
5998.3164 3.30623e-17
5999.4712 3.12154e-17
6000.626 3.37847e-17
6001.7808 2.97204e-17
6002.936 2.90754e-17
6004.0908 2.96299e-17
6005.2461 2.91205e-17
6006.4009 2.87697e-17
6007.5562 2.71072e-17
6008.7114 2.70785e-17
6009.8667 2.78212e-17
6011.022 2.49174e-17
6012.1772 2.63218e-17
6013.3325 3.2349e-17
6014.4883 2.66284e-17
6015.6436 2.9305e-17
6016.7988 2.91548e-17
6017.9546 2.63903e-17
6019.1099 2.65837e-17
6020.2656 2.92986e-17
6021.4214 2.91668e-17
6022.5771 2.8479e-17
6023.7329 2.71017e-17
6024.8887 3.04342e-17
6026.0444 2.6216e-17
6027.2002 2.67593e-17
6028.356 2.85707e-17
6029.5122 2.67367e-17
6030.668 2.85998e-17
6031.8242 2.92647e-17
6032.98 2.98334e-17
6034.1362 2.69485e-17
6035.2925 2.45277e-17
6036.4487 2.80586e-17
6037.6045 2.50182e-17
6038.7612 2.4022e-17
6039.9175 2.58095e-17
6041.0737 2.48322e-17
6042.23 3.09362e-17
6043.3862 2.69288e-17
6044.543 3.14387e-17
6045.6992 2.70823e-17
6046.856 2.84574e-17
6048.0127 2.77552e-17
6049.1689 2.74051e-17
6050.3257 3.12847e-17
6051.4824 2.75012e-17
6052.6392 2.98406e-17
6053.7959 2.44366e-17
6054.9531 2.77774e-17
6056.1099 2.75687e-17
6057.2666 2.41536e-17
6058.4238 2.52816e-17
6059.5806 2.64613e-17
6060.7378 2.26348e-17
6061.8945 2.28209e-17
6063.0518 2.73582e-17
6064.209 2.61111e-17
6065.3662 2.59761e-17
6066.5234 2.40281e-17
6067.6807 2.77282e-17
6068.8379 2.72644e-17
6069.9951 2.7857e-17
6071.1528 3.18335e-17
6072.3101 2.80106e-17
6073.4673 2.78422e-17
6074.625 2.86106e-17
6075.7827 2.78393e-17
6076.9399 2.71758e-17
6078.0977 2.99667e-17
6079.2554 2.55194e-17
6080.4131 3.10771e-17
6081.5708 2.65271e-17
6082.7285 2.35724e-17
6083.8862 2.78108e-17
6085.0444 2.86301e-17
6086.2021 2.93346e-17
6087.3599 2.69727e-17
6088.5181 2.50464e-17
6089.6763 2.49626e-17
6090.834 2.69801e-17
6091.9922 2.67631e-17
6093.1504 1.98629e-17
6094.3086 2.58733e-17
6095.4668 2.65099e-17
6096.625 2.78876e-17
6097.7832 3.00282e-17
6098.9419 2.69e-17
6100.1001 2.54624e-17
6101.2583 2.56555e-17
6102.417 2.55958e-17
6103.5752 2.80899e-17
6104.7339 3.41256e-17
6105.8926 2.59632e-17
6107.0513 2.41569e-17
6108.21 2.67608e-17
6109.3687 2.2519e-17
6110.5273 2.80987e-17
6111.686 3.23627e-17
6112.8447 2.51513e-17
6114.0034 2.68866e-17
6115.1626 2.25967e-17
6116.3213 2.46724e-17
6117.4805 2.70499e-17
6118.6392 2.4035e-17
6119.7983 2.61761e-17
6120.9575 2.70981e-17
6122.1167 2.50389e-17
6123.2759 2.34893e-17
6124.4351 2.60345e-17
6125.5942 2.9163e-17
6126.7534 2.66691e-17
6127.9126 2.53094e-17
6129.0723 2.54356e-17
6130.2314 2.71822e-17
6131.3911 2.68195e-17
6132.5503 2.43741e-17
6133.71 2.56223e-17
6134.8696 2.4972e-17
6136.0288 2.59128e-17
6137.1885 2.69692e-17
6138.3481 2.554e-17
6139.5078 2.47372e-17
6140.6675 2.50015e-17
6141.8276 2.24554e-17
6142.9873 2.41653e-17
6144.147 2.72522e-17
6145.3071 2.62065e-17
6146.4668 2.88368e-17
6147.627 2.64213e-17
6148.7871 2.33298e-17
6149.9468 2.70714e-17
6151.1069 2.52135e-17
6152.2671 2.4422e-17
6153.4272 2.51531e-17
6154.5874 2.4139e-17
6155.7476 3.07465e-17
6156.9082 2.45739e-17
6158.0684 2.43623e-17
6159.2285 2.17918e-17
6160.3892 1.9963e-17
6161.5493 2.07167e-17
6162.71 2.42615e-17
6163.8706 2.29151e-17
6165.0308 2.37318e-17
6166.1914 2.20376e-17
6167.3521 2.45786e-17
6168.5127 2.46883e-17
6169.6733 2.76652e-17
6170.8345 2.48935e-17
6171.9951 2.04965e-17
6173.1558 2.56876e-17
6174.3169 2.47741e-17
6175.4775 2.16311e-17
6176.6387 2.43355e-17
6177.7993 2.44957e-17
6178.9604 2.46802e-17
6180.1216 1.95098e-17
6181.2827 2.25642e-17
6182.4434 2.46584e-17
6183.605 2.29262e-17
6184.7661 2.61493e-17
6185.9272 2.49195e-17
6187.0884 2.19548e-17
6188.25 2.26301e-17
6189.4111 2.64302e-17
6190.5723 2.37907e-17
6191.7339 2.35568e-17
6192.8955 2.91389e-17
6194.0566 2.47568e-17
6195.2183 2.20331e-17
6196.3799 2.6104e-17
6197.5415 2.64808e-17
6198.7031 2.75253e-17
6199.8647 2.54559e-17
6201.0264 2.6541e-17
6202.188 2.54936e-17
6203.3501 2.34904e-17
6204.5117 2.32524e-17
6205.6738 2.42182e-17
6206.8354 2.30731e-17
6207.9976 2.33707e-17
6209.1597 2.48843e-17
6210.3213 2.44377e-17
6211.4834 2.53023e-17
6212.6455 2.31533e-17
6213.8076 2.72588e-17
6214.9697 2.55184e-17
6216.1323 2.76547e-17
6217.2944 2.23823e-17
6218.4565 2.80675e-17
6219.6191 2.65934e-17
6220.7812 2.46663e-17
6221.9438 2.30841e-17
6223.106 2.28652e-17
6224.2686 2.64125e-17
6225.4312 2.61517e-17
6226.5938 2.65327e-17
6227.7559 2.63075e-17
6228.9185 2.46713e-17
6230.0815 2.5884e-17
6231.2441 2.26376e-17
6232.4067 2.21911e-17
6233.5693 2.41467e-17
6234.7324 2.60564e-17
6235.895 2.38138e-17
6237.0581 2.46802e-17
6238.2207 2.61904e-17
6239.3838 2.11557e-17
6240.5469 2.33779e-17
6241.71 2.24362e-17
6242.873 2.40326e-17
6244.0361 2.59975e-17
6245.1992 2.71588e-17
6246.3623 2.72527e-17
6247.5254 2.5866e-17
6248.6885 2.6702e-17
6249.8521 2.64834e-17
6251.0151 2.3531e-17
6252.1787 2.63256e-17
6253.3418 2.46921e-17
6254.5054 2.49516e-17
6255.6689 2.53462e-17
6256.8325 2.48197e-17
6257.9956 2.25687e-17
6259.1592 2.81549e-17
6260.3232 2.36828e-17
6261.4868 1.93734e-17
6262.6504 2.61164e-17
6263.814 2.73177e-17
6264.9775 2.37792e-17
6266.1416 2.53822e-17
6267.3052 2.63814e-17
6268.4692 2.65606e-17
6269.6328 2.32965e-17
6270.7969 2.23543e-17
6271.9609 2.63482e-17
6273.125 2.39015e-17
6274.2891 2.31504e-17
6275.4531 2.32172e-17
6276.6172 2.14643e-17
6277.7812 2.0416e-17
6278.9453 2.19052e-17
6280.1099 2.46501e-17
6281.2739 2.18762e-17
6282.438 2.45147e-17
6283.6025 2.44518e-17
6284.7671 2.19589e-17
6285.9312 2.45058e-17
6287.0957 2.65307e-17
6288.2603 2.13971e-17
6289.4248 2.68351e-17
6290.5894 2.50762e-17
6291.7539 2.28089e-17
6292.9185 2.49684e-17
6294.083 2.49309e-17
6295.2476 2.54521e-17
6296.4126 2.83241e-17
6297.5771 2.72303e-17
6298.7422 2.61176e-17
6299.9067 2.10295e-17
6301.0718 3.01958e-17
6302.2368 2.42328e-17
6303.4014 2.4004e-17
6304.5664 2.53187e-17
6305.7314 2.41283e-17
6306.8965 2.42412e-17
6308.0615 2.67563e-17
6309.2266 2.17572e-17
6310.3921 2.26822e-17
6311.5571 2.83926e-17
6312.7222 2.54036e-17
6313.8877 2.45152e-17
6315.0527 2.51278e-17
6316.2183 2.58505e-17
6317.3833 2.64274e-17
6318.5488 1.96396e-17
6319.7144 2.41857e-17
6320.8799 2.72362e-17
6322.0454 2.68863e-17
6323.2109 2.58976e-17
6324.3765 2.6496e-17
6325.542 2.45462e-17
6326.7075 2.63941e-17
6327.8735 2.77606e-17
6329.0391 2.63176e-17
6330.2051 2.7374e-17
6331.3706 2.45563e-17
6332.5366 2.65572e-17
6333.7026 2.52243e-17
6334.8682 2.65134e-17
6336.0342 2.49871e-17
6337.2002 2.48624e-17
6338.3662 2.57362e-17
6339.5322 2.91709e-17
6340.6982 2.53217e-17
6341.8643 2.33417e-17
6343.0303 2.49687e-17
6344.1968 2.75035e-17
6345.3628 2.35205e-17
6346.5293 2.35411e-17
6347.6953 2.38522e-17
6348.8618 2.60188e-17
6350.0283 2.87355e-17
6351.1943 2.04862e-17
6352.3608 2.55395e-17
6353.5273 2.50473e-17
6354.6938 2.40262e-17
6355.8604 2.46801e-17
6357.0269 1.97105e-17
6358.1934 2.86833e-17
6359.3604 2.87169e-17
6360.5269 2.27399e-17
6361.6934 2.61177e-17
6362.8604 2.38785e-17
6364.0273 2.72174e-17
6365.1938 2.38631e-17
6366.3608 2.40154e-17
6367.5278 2.62325e-17
6368.6948 2.61884e-17
6369.8613 2.42612e-17
6371.0283 2.32384e-17
6372.1953 2.38856e-17
6373.3628 2.35653e-17
6374.5298 2.70426e-17
6375.6968 2.24892e-17
6376.8638 2.70641e-17
6378.0312 2.85344e-17
6379.1982 2.62843e-17
6380.3657 2.56025e-17
6381.5327 2.28389e-17
6382.7002 2.56218e-17
6383.8677 2.55776e-17
6385.0352 2.51676e-17
6386.2026 2.77643e-17
6387.3701 2.1691e-17
6388.5376 2.37445e-17
6389.7051 2.69458e-17
6390.8726 2.71011e-17
6392.04 2.57906e-17
6393.208 2.40463e-17
6394.3755 2.60083e-17
6395.543 2.58153e-17
6396.7109 2.32805e-17
6397.8789 2.46374e-17
6399.0464 2.51432e-17
6400.2144 2.45995e-17
6401.3823 2.18414e-17
6402.5503 2.87495e-17
6403.7183 2.02775e-17
6404.8862 2.88207e-17
6406.0542 2.50613e-17
6407.2222 2.35885e-17
6408.3901 2.42349e-17
6409.5586 2.40012e-17
6410.7266 2.19163e-17
6411.895 2.69993e-17
6413.063 2.71706e-17
6414.2314 2.59818e-17
6415.3994 2.30235e-17
6416.5679 2.54378e-17
6417.7363 2.73741e-17
6418.9048 2.50517e-17
6420.0732 2.42271e-17
6421.2417 2.76599e-17
6422.4102 2.50896e-17
6423.5786 2.63985e-17
6424.7471 2.66484e-17
6425.916 2.54526e-17
6427.0845 2.55437e-17
6428.2529 2.24856e-17
6429.4219 2.57176e-17
6430.5908 2.32825e-17
6431.7593 2.32688e-17
6432.9282 2.54006e-17
6434.0972 2.60793e-17
6435.2661 2.57339e-17
6436.4346 2.54181e-17
6437.604 2.61794e-17
6438.7725 2.70265e-17
6439.9419 2.68222e-17
6441.1108 2.66104e-17
6442.2798 2.49541e-17
6443.4492 2.45579e-17
6444.6182 2.37586e-17
6445.7871 2.49814e-17
6446.9565 2.40376e-17
6448.126 2.43082e-17
6449.2949 2.41618e-17
6450.4644 2.20987e-17
6451.6338 2.62074e-17
6452.8032 2.78348e-17
6453.9727 2.49745e-17
6455.1421 2.08464e-17
6456.3115 2.69157e-17
6457.481 2.77485e-17
6458.6504 2.48146e-17
6459.8203 2.62814e-17
6460.9897 2.64778e-17
6462.1592 2.26584e-17
6463.3291 2.84775e-17
6464.499 2.45054e-17
6465.6685 2.61883e-17
6466.8384 2.572e-17
6468.0083 2.10861e-17
6469.1782 2.56841e-17
6470.3477 2.28895e-17
6471.5181 2.54188e-17
6472.688 2.58972e-17
6473.8579 2.24482e-17
6475.0278 2.53926e-17
6476.1978 2.43416e-17
6477.3682 2.55588e-17
6478.5381 2.16871e-17
6479.708 2.3802e-17
6480.8784 2.4304e-17
6482.0488 2.61135e-17
6483.2188 2.59135e-17
6484.3892 2.73902e-17
6485.5596 2.53259e-17
6486.73 2.30785e-17
6487.9004 2.45734e-17
6489.0708 2.5382e-17
6490.2412 2.95078e-17
6491.4116 2.24848e-17
6492.582 2.25406e-17
6493.7529 2.85339e-17
6494.9233 2.53329e-17
6496.0938 2.46338e-17
6497.2646 2.55263e-17
6498.4351 2.62996e-17
6499.606 2.6357e-17
6500.7769 2.57299e-17
6501.9473 2.39212e-17
6503.1182 2.83142e-17
6504.2891 2.56304e-17
6505.46 2.56513e-17
6506.6309 2.49147e-17
6507.8018 2.34375e-17
6508.9727 2.72403e-17
6510.144 2.27091e-17
6511.3149 2.34373e-17
6512.4863 2.46858e-17
6513.6572 2.33242e-17
6514.8286 2.53231e-17
6515.9995 2.23623e-17
6517.1709 2.63348e-17
6518.3418 2.7973e-17
6519.5132 2.13127e-17
6520.6846 2.4493e-17
6521.856 2.49942e-17
6523.0273 2.49693e-17
6524.1987 2.35959e-17
6525.3701 2.35219e-17
6526.5415 2.42142e-17
6527.7134 2.5553e-17
6528.8848 2.1461e-17
6530.0562 2.53984e-17
6531.228 2.60259e-17
6532.3994 2.29211e-17
6533.5713 2.55885e-17
6534.7427 2.58897e-17
6535.9146 2.47504e-17
6537.0864 2.4754e-17
6538.2583 2.44161e-17
6539.4302 1.98428e-17
6540.6021 2.73844e-17
6541.7739 2.32039e-17
6542.9458 2.09824e-17
6544.1177 2.44364e-17
6545.29 2.24654e-17
6546.4619 2.69111e-17
6547.6338 2.27974e-17
6548.8062 2.69711e-17
6549.978 2.24021e-17
6551.1504 2.28564e-17
6552.3223 2.2852e-17
6553.4946 2.06315e-17
6554.667 2.33314e-17
6555.8394 2.68623e-17
6557.0117 2.54748e-17
6558.1841 2.33465e-17
6559.3564 2.55837e-17
6560.5288 2.42689e-17
6561.7012 2.32011e-17
6562.8735 2.09824e-17
6564.0464 2.31699e-17
6565.2188 2.45303e-17
6566.3911 2.06717e-17
6567.564 2.45378e-17
6568.7368 2.1185e-17
6569.9092 2.54571e-17
6571.082 2.26971e-17
6572.2549 2.25977e-17
6573.4277 2.63407e-17
6574.6001 2.07259e-17
6575.7729 2.33845e-17
6576.9458 2.09857e-17
6578.1191 2.21797e-17
6579.292 2.45327e-17
6580.4648 2.75419e-17
6581.6377 2.58926e-17
6582.811 2.44157e-17
6583.9839 2.29978e-17
6585.1572 2.60843e-17
6586.3301 2.38634e-17
6587.5034 2.32152e-17
6588.6763 2.19974e-17
6589.8496 2.26306e-17
6591.0229 2.44795e-17
6592.1963 2.35017e-17
6593.3696 2.60196e-17
6594.543 2.39937e-17
6595.7163 2.3848e-17
6596.8896 2.59185e-17
6598.063 2.43803e-17
6599.2368 2.44824e-17
6600.4102 2.10186e-17
6601.5835 2.60984e-17
6602.7573 2.29773e-17
6603.9307 2.57655e-17
6605.1045 2.33928e-17
6606.2783 2.43297e-17
6607.4517 2.61415e-17
6608.6255 2.54154e-17
6609.7993 2.38239e-17
6610.9731 1.98816e-17
6612.147 2.38547e-17
6613.3208 2.27219e-17
6614.4946 2.34809e-17
6615.6685 2.37136e-17
6616.8428 2.4342e-17
6618.0166 2.24763e-17
6619.1904 2.13644e-17
6620.3647 2.46861e-17
6621.5386 2.52411e-17
6622.7129 2.68189e-17
6623.8872 2.31506e-17
6625.061 2.28838e-17
6626.2354 2.46709e-17
6627.4097 2.61607e-17
6628.584 2.34342e-17
6629.7583 1.95586e-17
6630.9326 2.55059e-17
6632.1069 2.37129e-17
6633.2812 2.42558e-17
6634.4556 2.49788e-17
6635.6299 2.38284e-17
6636.8047 2.58124e-17
6637.979 2.27063e-17
6639.1538 2.31891e-17
6640.3281 2.18355e-17
6641.5029 2.59347e-17
6642.6777 2.55661e-17
6643.8521 2.43478e-17
6645.0269 2.35013e-17
6646.2017 2.56924e-17
6647.3765 2.32008e-17
6648.5513 2.40288e-17
6649.7261 2.48457e-17
6650.9009 2.65234e-17
6652.0757 2.65046e-17
6653.2505 2.41842e-17
6654.4258 2.2611e-17
6655.6006 2.46739e-17
6656.7754 2.48046e-17
6657.9507 2.49121e-17
6659.126 2.50453e-17
6660.3008 2.5821e-17
6661.4761 2.56329e-17
6662.6514 2.28997e-17
6663.8262 2.54178e-17
6665.0015 2.49631e-17
6666.1768 2.24734e-17
6667.3521 2.12095e-17
6668.5273 2.43872e-17
6669.7031 2.64418e-17
6670.8784 2.33349e-17
6672.0537 2.30534e-17
6673.229 2.70644e-17
6674.4048 2.34646e-17
6675.5801 2.28335e-17
6676.7559 2.57949e-17
6677.9312 2.32963e-17
6679.1069 2.57799e-17
6680.2827 2.35393e-17
6681.458 2.08937e-17
6682.6338 2.82678e-17
6683.8096 2.26773e-17
6684.9854 2.69487e-17
6686.1611 2.41577e-17
6687.3369 2.40286e-17
6688.5127 2.66957e-17
6689.6885 2.7241e-17
6690.8647 2.62058e-17
6692.0405 2.2557e-17
6693.2163 2.75378e-17
6694.3926 2.43996e-17
6695.5684 2.61006e-17
6696.7446 2.19705e-17
6697.9209 2.62798e-17
6699.0967 2.17889e-17
6700.2729 2.20255e-17
6701.4492 2.44959e-17
6702.6255 2.59592e-17
6703.8018 2.47424e-17
6704.978 2.18865e-17
6706.1543 2.38088e-17
6707.3306 2.3959e-17
6708.5068 2.55591e-17
6709.6831 2.4205e-17
6710.8599 2.53298e-17
6712.0361 2.33658e-17
6713.2124 2.4312e-17
6714.3892 2.64399e-17
6715.5659 2.44726e-17
6716.7422 2.4634e-17
6717.9189 2.48386e-17
6719.0957 2.18107e-17
6720.272 2.54959e-17
6721.4487 2.51719e-17
6722.6255 2.39729e-17
6723.8022 2.41716e-17
6724.979 2.46945e-17
6726.1558 2.71842e-17
6727.333 2.206e-17
6728.5098 2.22526e-17
6729.6865 2.37453e-17
6730.8638 2.47417e-17
6732.0405 2.3429e-17
6733.2178 2.47716e-17
6734.3945 2.26731e-17
6735.5718 2.33912e-17
6736.749 2.24779e-17
6737.9258 2.34514e-17
6739.103 2.34117e-17
6740.2803 2.67811e-17
6741.4575 2.56693e-17
6742.6348 2.44306e-17
6743.812 2.34494e-17
6744.9893 2.90741e-17
6746.1665 2.35695e-17
6747.3438 2.20994e-17
6748.5215 2.38407e-17
6749.6987 2.29064e-17
6750.876 2.32623e-17
6752.0537 2.42552e-17
6753.231 2.25082e-17
6754.4087 2.19329e-17
6755.5864 2.27207e-17
6756.7637 2.4832e-17
6757.9414 2.54696e-17
6759.1191 2.51747e-17
6760.2969 2.49514e-17
6761.4746 2.73054e-17
6762.6523 2.317e-17
6763.8301 2.47662e-17
6765.0078 2.34557e-17
6766.186 2.62118e-17
6767.3638 2.65404e-17
6768.5415 2.51007e-17
6769.7197 2.37537e-17
6770.8975 2.55719e-17
6772.0752 2.58088e-17
6773.2534 2.37294e-17
6774.4316 2.49493e-17
6775.6094 2.55392e-17
6776.7876 2.65817e-17
6777.9658 2.48108e-17
6779.144 2.425e-17
6780.3223 2.37621e-17
6781.5005 2.66393e-17
6782.6787 2.46286e-17
6783.8569 2.55401e-17
6785.0352 2.49935e-17
6786.2134 2.36069e-17
6787.3921 2.36255e-17
6788.5703 2.4807e-17
6789.7485 2.53758e-17
6790.9272 2.31517e-17
6792.1055 2.35097e-17
6793.2842 2.38381e-17
6794.4629 2.3148e-17
6795.6411 2.75186e-17
6796.8198 2.57416e-17
6797.9985 2.2558e-17
6799.1772 2.37179e-17
6800.356 2.53847e-17
6801.5347 2.3093e-17
6802.7134 2.14424e-17
6803.8921 2.23522e-17
6805.0708 2.3467e-17
6806.2495 2.5543e-17
6807.4287 2.27377e-17
6808.6074 2.3905e-17
6809.7866 2.54247e-17
6810.9653 2.54213e-17
6812.1445 2.45864e-17
6813.3232 2.42123e-17
6814.5024 2.31755e-17
6815.6816 2.317e-17
6816.8608 2.78065e-17
6818.0396 2.40417e-17
6819.2188 2.24837e-17
6820.3979 2.47002e-17
6821.5771 2.56573e-17
6822.7563 2.65021e-17
6823.9355 2.47302e-17
6825.1152 2.5916e-17
6826.2944 2.44453e-17
6827.4736 3.0759e-17
6828.6533 2.74438e-17
6829.8325 2.84263e-17
6831.0122 2.28718e-17
6832.1914 2.18015e-17
6833.3711 2.50186e-17
6834.5503 2.44132e-17
6835.73 2.73098e-17
6836.9097 2.54044e-17
6838.0894 2.27496e-17
6839.269 2.51814e-17
6840.4487 2.71959e-17
6841.6284 2.22665e-17
6842.8081 2.56139e-17
6843.9878 2.39563e-17
6845.1675 2.82177e-17
6846.3472 2.43587e-17
6847.5273 2.57761e-17
6848.707 2.48967e-17
6849.8867 2.38961e-17
6851.0669 2.66565e-17
6852.2466 2.30777e-17
6853.4268 2.59978e-17
6854.6069 2.47427e-17
6855.7871 2.51779e-17
6856.9668 2.46657e-17
6858.147 2.52687e-17
6859.3271 2.60849e-17
6860.5073 2.43756e-17
6861.6875 2.59749e-17
6862.8677 2.74134e-17
6864.0479 2.87298e-17
6865.228 2.59105e-17
6866.4087 2.61036e-17
6867.5889 2.63387e-17
6868.769 2.39109e-17
6869.9497 2.54668e-17
6871.1299 2.17295e-17
6872.3105 2.18013e-17
6873.4907 2.59628e-17
6874.6714 2.73121e-17
6875.8521 2.55901e-17
6877.0327 2.44236e-17
6878.2129 2.09436e-17
6879.3936 2.256e-17
6880.5742 2.22855e-17
6881.7549 2.22557e-17
6882.9355 2.69923e-17
6884.1162 2.60899e-17
6885.2969 2.56577e-17
6886.478 2.28184e-17
6887.6587 2.56974e-17
6888.8398 2.46634e-17
6890.0205 2.30739e-17
6891.2012 2.56219e-17
6892.3823 2.25438e-17
6893.563 2.38498e-17
6894.7441 2.11106e-17
6895.9253 2.22001e-17
6897.106 2.23666e-17
6898.2871 2.21285e-17
6899.4683 1.96468e-17
6900.6494 2.61716e-17
6901.8306 2.32266e-17
6903.0117 2.18439e-17
6904.1929 2.33222e-17
6905.374 2.42028e-17
6906.5552 2.13744e-17
6907.7368 2.34934e-17
6908.918 1.84819e-17
6910.0991 2.43014e-17
6911.2808 2.69007e-17
6912.4619 2.31574e-17
6913.6436 2.60074e-17
6914.8247 2.49656e-17
6916.0063 2.51589e-17
6917.188 2.43561e-17
6918.3696 2.42928e-17
6919.5508 2.61504e-17
6920.7324 2.45253e-17
6921.9141 2.09495e-17
6923.0957 2.64451e-17
6924.2773 2.61409e-17
6925.459 2.65363e-17
6926.6411 2.37399e-17
6927.8228 2.28503e-17
6929.0044 2.70144e-17
6930.186 2.33615e-17
6931.3682 2.73241e-17
6932.5498 2.46713e-17
6933.7319 2.28355e-17
6934.9136 2.57678e-17
6936.0957 2.41556e-17
6937.2778 2.36492e-17
6938.4595 2.38566e-17
6939.6416 2.17458e-17
6940.8237 2.45102e-17
6942.0059 2.40986e-17
6943.188 2.51554e-17
6944.3701 2.27925e-17
6945.5522 2.44318e-17
6946.7344 2.70004e-17
6947.9165 2.18235e-17
6949.0986 2.70067e-17
6950.2808 2.51743e-17
6951.4634 2.32463e-17
6952.6455 2.59249e-17
6953.8281 2.59508e-17
6955.0103 2.44146e-17
6956.1929 2.47007e-17
6957.375 2.3274e-17
6958.5576 2.34754e-17
6959.7402 2.37965e-17
6960.9224 2.10855e-17
6962.105 2.5631e-17
6963.2876 2.77181e-17
6964.4702 2.45585e-17
6965.6528 2.45252e-17
6966.8354 2.36433e-17
6968.0181 2.68516e-17
6969.2012 2.33008e-17
6970.3838 2.6405e-17
6971.5664 2.43438e-17
6972.749 2.1817e-17
6973.9321 2.5308e-17
6975.1147 2.53552e-17
6976.2979 2.70502e-17
6977.4805 2.69971e-17
6978.6636 2.39589e-17
6979.8467 2.56093e-17
6981.0293 2.44141e-17
6982.2124 2.46296e-17
6983.3955 2.54312e-17
6984.5786 2.39753e-17
6985.7617 2.09861e-17
6986.9448 2.47127e-17
6988.1279 2.61384e-17
6989.311 2.46078e-17
6990.4941 2.46863e-17
6991.6772 2.97779e-17
6992.8608 2.5333e-17
6994.0439 2.47822e-17
6995.2271 2.62743e-17
6996.4102 2.73044e-17
6997.5938 2.57471e-17
6998.7773 2.74497e-17
6999.9604 2.45581e-17
7001.144 2.66435e-17
7002.3276 2.53911e-17
7003.5107 2.63886e-17
7004.6943 2.77747e-17
7005.8779 2.5322e-17
7007.0615 2.62699e-17
7008.2451 2.63314e-17
7009.4287 2.35645e-17
7010.6123 2.44554e-17
7011.7959 2.33997e-17
7012.9795 2.1988e-17
7014.1631 2.59589e-17
7015.3472 2.51184e-17
7016.5308 2.53708e-17
7017.7148 2.73733e-17
7018.8984 2.51081e-17
7020.082 2.30963e-17
7021.2661 2.40627e-17
7022.4502 2.16785e-17
7023.6338 2.25151e-17
7024.8179 2.45588e-17
7026.002 2.33801e-17
7027.186 2.32507e-17
7028.3696 2.13556e-17
7029.5537 2.48261e-17
7030.7378 2.15702e-17
7031.9219 2.28647e-17
7033.106 2.21433e-17
7034.2905 2.39329e-17
7035.4746 2.12238e-17
7036.6587 2.60409e-17
7037.8428 2.41755e-17
7039.0273 2.54317e-17
7040.2114 2.71076e-17
7041.396 2.50717e-17
7042.5801 2.48666e-17
7043.7646 2.50036e-17
7044.9487 2.68432e-17
7046.1333 2.68891e-17
7047.3179 2.68585e-17
7048.5024 2.62519e-17
7049.6865 2.40931e-17
7050.8711 2.35726e-17
7052.0557 2.20803e-17
7053.2402 2.49986e-17
7054.4248 2.55512e-17
7055.6094 2.25661e-17
7056.7939 2.39252e-17
7057.979 2.61637e-17
7059.1636 2.04741e-17
7060.3481 2.32342e-17
7061.5327 2.49624e-17
7062.7178 2.29176e-17
7063.9023 2.46067e-17
7065.0874 2.35937e-17
7066.272 2.34827e-17
7067.457 2.32146e-17
7068.6421 2.36759e-17
7069.8267 2.25153e-17
7071.0117 2.44167e-17
7072.1968 2.17944e-17
7073.3818 2.41701e-17
7074.5669 2.12718e-17
7075.752 2.61944e-17
7076.937 2.45591e-17
7078.1221 2.29782e-17
7079.3071 2.37325e-17
7080.4922 2.4116e-17
7081.6777 2.16132e-17
7082.8628 2.38614e-17
7084.0479 2.40395e-17
7085.2334 2.42871e-17
7086.4185 2.40621e-17
7087.604 2.53654e-17
7088.7891 2.33685e-17
7089.9746 2.4288e-17
7091.1597 2.4848e-17
7092.3452 2.26652e-17
7093.5308 2.33786e-17
7094.7163 2.44406e-17
7095.9014 2.62853e-17
7097.0869 2.45837e-17
7098.2725 2.33711e-17
7099.458 2.41247e-17
7100.644 2.43417e-17
7101.8296 2.42074e-17
7103.0151 2.20872e-17
7104.2007 2.22078e-17
7105.3862 2.2719e-17
7106.5718 2.22185e-17
7107.7578 2.21877e-17
7108.9434 2.26119e-17
7110.1294 2.31831e-17
7111.3149 2.35326e-17
7112.501 2.25211e-17
7113.687 2.27554e-17
7114.8726 2.16723e-17
7116.0586 2.39008e-17
7117.2446 2.43747e-17
7118.4302 2.38718e-17
7119.6162 2.4899e-17
7120.8022 2.43381e-17
7121.9883 2.32107e-17
7123.1743 2.43322e-17
7124.3608 2.31673e-17
7125.5469 2.38062e-17
7126.7329 2.02891e-17
7127.9189 2.33037e-17
7129.105 2.17821e-17
7130.2915 2.10442e-17
7131.4775 2.25574e-17
7132.6636 2.49261e-17
7133.8501 2.45348e-17
7135.0366 2.25873e-17
7136.2227 2.24806e-17
7137.4092 2.41446e-17
7138.5952 2.30962e-17
7139.7817 2.45377e-17
7140.9683 2.22509e-17
7142.1548 2.42993e-17
7143.3413 2.48157e-17
7144.5278 2.40584e-17
7145.7139 2.12191e-17
7146.9009 2.32734e-17
7148.0874 2.35579e-17
7149.2739 2.34329e-17
7150.4604 2.35729e-17
7151.647 2.46292e-17
7152.834 2.26139e-17
7154.0205 2.25569e-17
7155.207 2.28663e-17
7156.394 1.92608e-17
7157.5806 2.0939e-17
7158.7676 2.35692e-17
7159.9541 2.20503e-17
7161.1411 2.49941e-17
7162.3281 2.29715e-17
7163.5146 2.58927e-17
7164.7017 2.06257e-17
7165.8887 1.96525e-17
7167.0757 2.14772e-17
7168.2627 2.27763e-17
7169.4497 2.03848e-17
7170.6367 2.26672e-17
7171.8237 2.39263e-17
7173.0107 2.1828e-17
7174.1978 2.22153e-17
7175.3848 2.24367e-17
7176.5723 2.4613e-17
7177.7593 2.25558e-17
7178.9463 2.55612e-17
7180.1338 2.28653e-17
7181.3208 2.20526e-17
7182.5083 2.26936e-17
7183.6953 2.24238e-17
7184.8828 2.38498e-17
7186.0703 2.08511e-17
7187.2573 2.23831e-17
7188.4448 2.50603e-17
7189.6323 2.24763e-17
7190.8198 2.45107e-17
7192.0073 2.43427e-17
7193.1948 2.31146e-17
7194.3823 2.26391e-17
7195.5698 2.26316e-17
7196.7573 2.40283e-17
7197.9448 2.45999e-17
7199.1323 2.27444e-17
7200.3198 2.41208e-17
7201.5078 2.27049e-17
7202.6953 2.14336e-17
7203.8828 2.41393e-17
7205.0708 2.49897e-17
7206.2583 2.68091e-17
7207.4463 2.26789e-17
7208.6338 2.45173e-17
7209.8218 2.24754e-17
7211.0098 2.45305e-17
7212.1973 2.38842e-17
7213.3853 2.48851e-17
7214.5732 2.23248e-17
7215.7612 2.41974e-17
7216.9492 2.35704e-17
7218.1372 2.18741e-17
7219.3252 2.34001e-17
7220.5132 2.1943e-17
7221.7012 2.28318e-17
7222.8892 2.20361e-17
7224.0771 2.54892e-17
7225.2651 2.48847e-17
7226.4536 2.15426e-17
7227.6416 2.37156e-17
7228.8296 2.28301e-17
7230.0181 2.1689e-17
7231.2061 2.29352e-17
7232.3945 2.05206e-17
7233.5825 2.22219e-17
7234.771 2.41708e-17
7235.9595 2.21089e-17
7237.1475 2.37125e-17
7238.3359 2.55161e-17
7239.5244 2.27368e-17
7240.7129 2.61365e-17
7241.9014 2.04706e-17
7243.0898 2.44473e-17
7244.2783 2.1334e-17
7245.4668 1.68636e-17
7246.6553 2.66619e-17
7247.8438 2.05188e-17
7249.0322 1.84661e-17
7250.2207 2.24617e-17
7251.4097 2.27078e-17
7252.5981 2.51579e-17
7253.7866 2.12697e-17
7254.9756 2.40356e-17
7256.1641 1.97361e-17
7257.353 2.50732e-17
7258.5415 2.36428e-17
7259.7305 2.52744e-17
7260.9194 1.99011e-17
7262.1079 2.33004e-17
7263.2969 2.06171e-17
7264.4858 2.34845e-17
7265.6748 2.04595e-17
7266.8638 2.36197e-17
7268.0527 2.07735e-17
7269.2412 2.06092e-17
7270.4302 2.32639e-17
7271.6196 2.43902e-17
7272.8086 2.19028e-17
7273.9976 2.39781e-17
7275.1865 2.32363e-17
7276.3755 1.89536e-17
7277.5649 2.10009e-17
7278.7539 2.05854e-17
7279.9429 2.03779e-17
7281.1323 1.90342e-17
7282.3213 2.28602e-17
7283.5107 2.25466e-17
7284.6997 2.3424e-17
7285.8892 2.33355e-17
7287.0786 2.20875e-17
7288.2676 2.2011e-17
7289.457 2.44664e-17
7290.6465 2.61106e-17
7291.8359 2.48049e-17
7293.0249 2.22912e-17
7294.2148 2.10126e-17
7295.4038 1.88489e-17
7296.5933 2.25819e-17
7297.7827 2.37118e-17
7298.9727 2.53055e-17
7300.1621 2.43856e-17
7301.3516 2.27376e-17
7302.541 2.09686e-17
7303.7305 2.18215e-17
7304.9204 2.42908e-17
7306.1099 2.38726e-17
7307.2998 2.11264e-17
7308.4893 2.41283e-17
7309.6792 2.29594e-17
7310.8687 2.37078e-17
7312.0586 2.17426e-17
7313.248 2.65918e-17
7314.438 1.99893e-17
7315.6279 2.42601e-17
7316.8179 2.17987e-17
7318.0073 2.02071e-17
7319.1973 2.31995e-17
7320.3872 2.29561e-17
7321.5771 2.36673e-17
7322.7671 2.36683e-17
7323.957 2.13009e-17
7325.147 2.02012e-17
7326.3369 2.16198e-17
7327.5273 2.2333e-17
7328.7173 2.35532e-17
7329.9072 2.32047e-17
7331.0972 1.92005e-17
7332.2876 2.23572e-17
7333.4775 1.99908e-17
7334.668 2.20377e-17
7335.8579 2.24748e-17
7337.0483 1.97951e-17
7338.2383 2.29346e-17
7339.4287 2.41915e-17
7340.6191 1.74289e-17
7341.8091 1.79954e-17
7342.9995 1.91274e-17
7344.1899 1.97341e-17
7345.3799 2.17153e-17
7346.5703 1.92095e-17
7347.7607 2.0519e-17
7348.9512 2.22372e-17
7350.1416 2.27747e-17
7351.332 2.22288e-17
7352.5225 2.22446e-17
7353.7134 2.01907e-17
7354.9038 2.1003e-17
7356.0942 2.19094e-17
7357.2847 2.02139e-17
7358.4756 2.03944e-17
7359.666 2.21811e-17
7360.8564 1.78918e-17
7362.0474 2.14509e-17
7363.2378 2.25186e-17
7364.4287 2.0082e-17
7365.6191 2.41458e-17
7366.8101 2.39682e-17
7368.001 2.3184e-17
7369.1914 1.94289e-17
7370.3823 1.94568e-17
7371.5732 2.42301e-17
7372.7642 2.16498e-17
7373.9546 2.15755e-17
7375.1455 2.12481e-17
7376.3364 2.44912e-17
7377.5273 1.902e-17
7378.7183 2.0515e-17
7379.9092 2.22595e-17
7381.1006 2.24906e-17
7382.2915 2.10171e-17
7383.4824 2.10528e-17
7384.6733 2.0094e-17
7385.8643 2.37864e-17
7387.0557 2.26393e-17
7388.2466 2.19791e-17
7389.438 2.17688e-17
7390.6289 1.843e-17
7391.8203 2.26565e-17
7393.0112 2.34592e-17
7394.2026 2.07171e-17
7395.3936 2.41669e-17
7396.585 2.27504e-17
7397.7764 2.22872e-17
7398.9673 2.22018e-17
7400.1587 2.06405e-17
7401.3501 2.54521e-17
7402.5415 2.26693e-17
7403.7329 2.30261e-17
7404.9243 2.33443e-17
7406.1157 1.92279e-17
7407.3071 2.30515e-17
7408.4985 2.0413e-17
7409.6899 2.25282e-17
7410.8813 2.15889e-17
7412.0732 2.06148e-17
7413.2646 1.95281e-17
7414.4561 2.0689e-17
7415.6475 2.0327e-17
7416.8394 1.90994e-17
7418.0308 2.05021e-17
7419.2222 2.01732e-17
7420.4141 1.9614e-17
7421.606 2.25991e-17
7422.7974 2.09772e-17
7423.9893 2.27549e-17
7425.1807 2.06898e-17
7426.3726 1.9221e-17
7427.5645 1.94323e-17
7428.7563 2.05267e-17
7429.9482 2.29469e-17
7431.1396 2.15143e-17
7432.3315 1.93506e-17
7433.5234 2.18526e-17
7434.7153 2.13583e-17
7435.9072 1.98719e-17
7437.0991 1.82431e-17
7438.291 2.04252e-17
7439.4834 1.96714e-17
7440.6753 2.25698e-17
7441.8672 1.90328e-17
7443.0591 1.81002e-17
7444.251 2.09823e-17
7445.4434 2.00843e-17
7446.6353 2.49721e-17
7447.8276 2.10244e-17
7449.0195 1.88233e-17
7450.2119 2.24344e-17
7451.4038 1.85022e-17
7452.5962 2.24244e-17
7453.7881 2.12631e-17
7454.9805 2.09214e-17
7456.1729 2.02547e-17
7457.3652 1.91192e-17
7458.5571 1.81553e-17
7459.7495 1.88043e-17
7460.9419 2.16671e-17
7462.1343 2.08648e-17
7463.3267 2.31529e-17
7464.519 2.14559e-17
7465.7114 2.11956e-17
7466.9038 1.95984e-17
7468.0962 2.13263e-17
7469.2886 2.05909e-17
7470.481 2.32212e-17
7471.6738 2.10426e-17
7472.8662 2.01164e-17
7474.0586 2.35347e-17
7475.251 2.15841e-17
7476.4438 2.0079e-17
7477.6362 2.31809e-17
7478.8291 1.92799e-17
7480.0215 2.14272e-17
7481.2144 2.27511e-17
7482.4067 2.11885e-17
7483.5996 2.57242e-17
7484.792 2.51986e-17
7485.9849 1.9692e-17
7487.1777 2.22791e-17
7488.3706 2.17979e-17
7489.563 1.97745e-17
7490.7559 1.8864e-17
7491.9487 2.63737e-17
7493.1416 2.26522e-17
7494.3345 2.57908e-17
7495.5273 2.07604e-17
7496.7202 2.01904e-17
7497.9131 2.16147e-17
7499.106 2.27714e-17
7500.2988 1.95417e-17
7501.4922 2.33402e-17
7502.6851 1.93389e-17
7503.8779 2.44441e-17
7505.0708 2.21404e-17
7506.2642 2.34155e-17
7507.457 2.3185e-17
7508.6499 2.14015e-17
7509.8433 2.33166e-17
7511.0361 2.31157e-17
7512.2295 2.2305e-17
7513.4224 2.34475e-17
7514.6157 2.31701e-17
7515.8091 2.30779e-17
7517.002 2.11011e-17
7518.1953 2.33432e-17
7519.3887 2.37307e-17
7520.582 2.27752e-17
7521.7749 2.02256e-17
7522.9683 2.35739e-17
7524.1616 1.76056e-17
7525.355 2.3202e-17
7526.5483 2.11298e-17
7527.7417 2.16973e-17
7528.9351 2.24499e-17
7530.1284 2.10766e-17
7531.3218 2.21728e-17
7532.5156 2.35069e-17
7533.709 1.9763e-17
7534.9023 2.05697e-17
7536.0957 2.10246e-17
7537.2896 2.09411e-17
7538.4829 2.26048e-17
7539.6763 2.36224e-17
7540.8701 2.31744e-17
7542.0635 2.18962e-17
7543.2573 2.10478e-17
7544.4507 2.13758e-17
7545.6445 2.00902e-17
7546.8379 2.09863e-17
7548.0317 2.32464e-17
7549.2256 1.9951e-17
7550.4189 2.04501e-17
7551.6128 2.08307e-17
7552.8066 2.15958e-17
7554.0005 2.07077e-17
7555.1943 1.91078e-17
7556.3877 2.25626e-17
7557.582 2.17125e-17
7558.7754 2.4095e-17
7559.9692 2.22453e-17
7561.1631 2.55115e-17
7562.3574 2.1683e-17
7563.5513 2.00148e-17
7564.7451 1.95611e-17
7565.939 2.01553e-17
7567.1328 2.15131e-17
7568.3267 2.1501e-17
7569.521 2.1386e-17
7570.7148 2.39989e-17
7571.9087 1.76177e-17
7573.103 2.5038e-17
7574.2969 2.36376e-17
7575.4912 2.1192e-17
7576.6851 2.24713e-17
7577.8794 2.23271e-17
7579.0732 2.40881e-17
7580.2676 2.15541e-17
7581.4619 2.26422e-17
7582.6558 2.27127e-17
7583.8501 2.30434e-17
7585.0444 2.01915e-17
7586.2383 2.29387e-17
7587.4326 2.25188e-17
7588.627 2.36562e-17
7589.8213 2.18067e-17
7591.0156 2.00125e-17
7592.21 2.25163e-17
7593.4043 2.3215e-17
7594.5986 2.50568e-17
7595.793 2.04588e-17
7596.9873 2.17801e-17
7598.1816 1.88821e-17
7599.376 2.20488e-17
7600.5708 2.11248e-17
7601.7651 2.01876e-17
7602.9595 2.4855e-17
7604.1538 2.07581e-17
7605.3486 2.52141e-17
7606.543 2.79935e-17
7607.7378 2.19805e-17
7608.9321 2.0554e-17
7610.1265 1.2848e-17
7611.3213 1.88103e-17
7612.5161 1.98243e-17
7613.7104 1.85361e-17
7614.9053 1.9184e-17
7616.0996 1.98841e-17
7617.2944 1.90555e-17
7618.4893 2.16822e-17
7619.6841 2.06665e-17
7620.8784 2.50886e-17
7622.0732 2.15921e-17
7623.2681 2.28313e-17
7624.4629 2.00724e-17
7625.6577 1.9182e-17
7626.8525 2.03085e-17
7628.0474 2.23386e-17
7629.2422 2.43347e-17
7630.437 1.80625e-17
7631.6318 2.32489e-17
7632.8267 1.77288e-17
7634.0215 2.36034e-17
7635.2163 2.05855e-17
7636.4116 2.32824e-17
7637.6064 2.09283e-17
7638.8013 1.92193e-17
7639.9961 2.33226e-17
7641.1914 2.16977e-17
7642.3862 2.3921e-17
7643.5815 2.25282e-17
7644.7764 2.11446e-17
7645.9717 1.96686e-17
7647.1665 2.31757e-17
7648.3618 2.41891e-17
7649.5566 2.14959e-17
7650.752 2.34696e-17
7651.9468 2.15268e-17
7653.1421 2.13446e-17
7654.3374 2.1381e-17
7655.5327 1.94607e-17
7656.728 1.95315e-17
7657.9229 2.12299e-17
7659.1182 2.30816e-17
7660.3135 2.18694e-17
7661.5088 1.9164e-17
7662.7041 2.13908e-17
7663.8994 2.3685e-17
7665.0947 2.64685e-17
7666.29 2.46089e-17
7667.4854 2.12399e-17
7668.6807 2.13124e-17
7669.876 2.18423e-17
7671.0713 2.08873e-17
7672.2671 2.26675e-17
7673.4624 2.1924e-17
7674.6577 2.09731e-17
7675.853 2.52112e-17
7677.0488 2.05625e-17
7678.2441 2.28126e-17
7679.4399 2.12306e-17
7680.6353 2.21611e-17
7681.8306 2.06803e-17
7683.0264 2.0541e-17
7684.2217 2.19625e-17
7685.4175 2.41521e-17
7686.6128 2.40291e-17
7687.8086 2.29053e-17
7689.0044 2.14642e-17
7690.1997 2.1248e-17
7691.3955 2.11902e-17
7692.5913 2.17822e-17
7693.7871 2.31083e-17
7694.9824 2.1986e-17
7696.1782 2.07805e-17
7697.374 2.15526e-17
7698.5698 2.12209e-17
7699.7656 2.25364e-17
7700.9614 2.42917e-17
7702.1572 2.12075e-17
7703.353 2.18074e-17
7704.5488 1.96972e-17
7705.7446 2.1507e-17
7706.9404 2.04731e-17
7708.1362 2.23153e-17
7709.332 2.47834e-17
7710.5283 2.52054e-17
7711.7241 2.14132e-17
7712.9199 2.55189e-17
7714.1157 2.56995e-17
7715.312 2.05028e-17
7716.5078 1.50423e-17
7717.7041 2.41226e-17
7718.8999 2.55452e-17
7720.0957 2.39561e-17
7721.292 2.23149e-17
7722.4878 2.43222e-17
7723.6841 2.05974e-17
7724.8799 2.51981e-17
7726.0762 2.39527e-17
7727.2725 1.97549e-17
7728.4683 2.19209e-17
7729.6646 2.13489e-17
7730.8608 2.36662e-17
7732.0571 2.34801e-17
7733.2529 2.16889e-17
7734.4492 2.33205e-17
7735.6455 2.48711e-17
7736.8418 2.19884e-17
7738.0381 2.10275e-17
7739.2344 2.31543e-17
7740.4302 2.20177e-17
7741.6265 2.23704e-17
7742.8232 2.09625e-17
7744.0195 2.24676e-17
7745.2158 1.79037e-17
7746.4121 1.79569e-17
7747.6084 2.05168e-17
7748.8047 2.30353e-17
7750.001 2.64346e-17
7751.1973 1.98997e-17
7752.394 2.26125e-17
7753.5903 2.13479e-17
7754.7866 2.5992e-17
7755.9834 2.16871e-17
7757.1797 2.37054e-17
7758.376 1.9843e-17
7759.5728 2.66865e-17
7760.769 2.7069e-17
7761.9658 2.52444e-17
7763.1621 2.49609e-17
7764.3589 2.69321e-17
7765.5552 2.35434e-17
7766.752 2.58163e-17
7767.9487 2.45372e-17
7769.145 2.16962e-17
7770.3418 2.42147e-17
7771.5381 2.3588e-17
7772.7349 2.55242e-17
7773.9316 2.27737e-17
7775.1284 2.43508e-17
7776.3252 2.61585e-17
7777.5215 2.4012e-17
7778.7183 2.52412e-17
7779.915 2.35417e-17
7781.1118 2.44068e-17
7782.3086 2.91989e-17
7783.5054 2.79348e-17
7784.7021 2.63275e-17
7785.8989 2.61293e-17
7787.0957 2.60909e-17
7788.2925 2.68937e-17
7789.4893 2.64699e-17
7790.6865 3.20267e-17
7791.8833 3.16664e-17
7793.0801 2.53746e-17
7794.2769 2.88526e-17
7795.4741 2.75478e-17
7796.6709 3.08065e-17
7797.8677 2.4465e-17
7799.0649 2.72608e-17
7800.2617 2.77221e-17
7801.4585 2.99528e-17
7802.6558 3.14842e-17
7803.8525 3.49268e-17
7805.0498 3.87546e-17
7806.2466 4.03658e-17
7807.4434 4.10634e-17
7808.6406 3.8742e-17
7809.8379 3.43007e-17
7811.0347 3.56688e-17
7812.2319 3.12449e-17
7813.4292 3.291e-17
7814.626 2.96923e-17
7815.8232 3.21039e-17
7817.0205 3.43604e-17
7818.2178 4.01967e-17
7819.4146 3.85515e-17
7820.6118 4.42069e-17
7821.8091 5.57285e-17
7823.0063 5.88971e-17
7824.2036 6.87432e-17
7825.4009 6.50739e-17
7826.5981 6.20862e-17
7827.7954 5.23178e-17
7828.9927 4.68999e-17
7830.1899 3.84885e-17
7831.3872 3.19224e-17
7832.5845 2.94219e-17
7833.7817 2.90414e-17
7834.979 2.65981e-17
7836.1763 2.70185e-17
7837.374 2.43654e-17
7838.5713 2.7e-17
7839.7686 2.66576e-17
7840.9658 2.82275e-17
7842.1636 3.23008e-17
7843.3608 3.15123e-17
7844.5581 4.23472e-17
7845.7559 5.1834e-17
7846.9531 5.59246e-17
7848.1504 6.51946e-17
7849.3481 6.95555e-17
7850.5454 7.49615e-17
7851.7432 5.78729e-17
7852.9404 4.6392e-17
7854.1382 4.35706e-17
7855.3359 3.15408e-17
7856.5332 2.73059e-17
7857.731 2.3724e-17
7858.9282 2.67452e-17
7860.126 2.79349e-17
7861.3237 2.81954e-17
7862.521 2.67737e-17
7863.7188 2.10246e-17
7864.9165 2.34268e-17
7866.1143 2.86553e-17
7867.312 2.68685e-17
7868.5093 2.52369e-17
7869.707 2.73726e-17
7870.9048 2.67415e-17
7872.1025 2.63715e-17
7873.3003 2.25606e-17
7874.498 2.28427e-17
7875.6958 2.16875e-17
7876.8936 2.26785e-17
7878.0913 2.5632e-17
7879.2891 2.28347e-17
7880.4868 2.5019e-17
7881.6846 1.90369e-17
7882.8828 2.35882e-17
7884.0806 2.36916e-17
7885.2783 2.42228e-17
7886.4761 2.34482e-17
7887.6738 2.31939e-17
7888.8721 2.58711e-17
7890.0698 2.26859e-17
7891.2676 2.32783e-17
7892.4658 2.39137e-17
7893.6636 2.5133e-17
7894.8613 2.15159e-17
7896.0596 2.38421e-17
7897.2573 2.19726e-17
7898.4556 2.41189e-17
7899.6533 2.22962e-17
7900.8511 2.42878e-17
7902.0493 2.28712e-17
7903.2476 2.38815e-17
7904.4453 2.19506e-17
7905.6436 2.27609e-17
7906.8413 2.22416e-17
7908.0396 2.59998e-17
7909.2378 2.50705e-17
7910.4355 1.8956e-17
7911.6338 1.78604e-17
7912.832 2.29099e-17
7914.0298 2.04743e-17
7915.228 1.86477e-17
7916.4263 2.67204e-17
7917.6245 2.18282e-17
7918.8228 2.76943e-17
7920.021 2.5857e-17
7921.2192 2.53531e-17
7922.417 2.44962e-17
7923.6152 2.05244e-17
7924.8135 2.58049e-17
7926.0117 2.26179e-17
7927.21 2.24321e-17
7928.4082 2.46679e-17
7929.6064 2.60365e-17
7930.8047 2.0678e-17
7932.0034 2.34333e-17
7933.2017 2.35134e-17
7934.3999 2.02071e-17
7935.5981 2.18661e-17
7936.7964 2.15511e-17
7937.9946 2.07988e-17
7939.1929 2.24396e-17
7940.3916 2.22199e-17
7941.5898 2.00496e-17
7942.7881 2.06223e-17
7943.9868 2.15626e-17
7945.1851 2.38685e-17
7946.3833 1.92706e-17
7947.582 2.5971e-17
7948.7803 2.05433e-17
7949.979 2.10117e-17
7951.1772 2.2342e-17
7952.3755 2.0876e-17
7953.5742 2.09734e-17
7954.7725 2.03029e-17
7955.9712 2.19875e-17
7957.1699 2.29223e-17
7958.3682 2.25395e-17
7959.5669 2.08342e-17
7960.7651 2.27698e-17
7961.9639 2.37152e-17
7963.1626 1.92829e-17
7964.3608 2.24353e-17
7965.5596 2.03031e-17
7966.7583 1.83158e-17
7967.9565 2.41784e-17
7969.1553 2.19419e-17
7970.354 2.06735e-17
7971.5527 2.23305e-17
7972.751 2.13873e-17
7973.9497 1.87673e-17
7975.1484 2.35285e-17
7976.3472 2.35768e-17
7977.5459 2.15196e-17
7978.7446 2.06485e-17
7979.9434 2.04515e-17
7981.1421 1.98058e-17
7982.3408 2.01539e-17
7983.5396 2.37394e-17
7984.7383 2.21501e-17
7985.937 1.96351e-17
7987.1357 2.07917e-17
7988.3345 2.3416e-17
7989.5332 2.22028e-17
7990.7319 2.17162e-17
7991.9307 2.05541e-17
7993.1299 2.61257e-17
7994.3286 2.13778e-17
7995.5273 1.94956e-17
7996.7261 1.76267e-17
7997.9248 2.34835e-17
7999.124 2.31114e-17
8000.3228 2.05522e-17
8001.5215 2.55162e-17
8002.7207 2.33577e-17
8003.9194 2.54042e-17
8005.1182 2.84222e-17
8006.3174 2.97292e-17
8007.5161 3.01166e-17
8008.7153 2.61751e-17
8009.9141 2.73594e-17
8011.1128 2.34848e-17
8012.312 2.66777e-17
8013.5107 2.28601e-17
8014.71 2.26989e-17
8015.9087 1.79711e-17
8017.1079 1.86825e-17
8018.3071 2.10308e-17
8019.5059 2.53568e-17
8020.7051 2.35629e-17
8021.9038 2.50452e-17
8023.103 2.54249e-17
8024.3022 2.67691e-17
8025.501 2.50523e-17
8026.7002 2.88142e-17
8027.8994 2.27011e-17
8029.0986 2.3304e-17
8030.2974 2.36406e-17
8031.4966 2.02513e-17
8032.6958 1.99451e-17
8033.895 1.98225e-17
8035.0942 2.00159e-17
8036.293 2.01008e-17
8037.4922 1.91861e-17
8038.6914 2.09889e-17
8039.8906 2.17538e-17
8041.0898 2.24669e-17
8042.2891 1.72604e-17
8043.4883 1.86916e-17
8044.6875 2.07069e-17
8045.8867 2.19684e-17
8047.0859 2.2698e-17
8048.2852 2.02231e-17
8049.4844 1.91383e-17
8050.6836 2.17881e-17
8051.8828 1.92339e-17
8053.082 2.08249e-17
8054.2812 2.32713e-17
8055.4805 2.17201e-17
8056.6802 1.99178e-17
8057.8794 2.17039e-17
8059.0786 2.0127e-17
8060.2778 2.07413e-17
8061.4775 1.84067e-17
8062.6768 2.19562e-17
8063.876 2.51461e-17
8065.0752 2.13355e-17
8066.2749 2.08611e-17
8067.4741 2.09036e-17
8068.6733 2.16081e-17
8069.8726 2.2086e-17
8071.0723 1.99297e-17
8072.2715 1.97928e-17
8073.4712 2.28025e-17
8074.6704 2.12391e-17
8075.8701 1.97209e-17
8077.0693 2.16999e-17
8078.2686 2.17609e-17
8079.4683 1.85235e-17
8080.6675 2.1361e-17
8081.8672 2.15749e-17
8083.0664 2.03002e-17
8084.2661 1.92419e-17
8085.4658 2.00657e-17
8086.665 2.00274e-17
8087.8647 1.89857e-17
8089.064 1.98582e-17
8090.2637 2.03426e-17
8091.4634 2.02009e-17
8092.6626 1.91708e-17
8093.8623 1.82193e-17
8095.062 1.9889e-17
8096.2612 1.91364e-17
8097.4609 2.07216e-17
8098.6606 1.89128e-17
8099.8599 1.98338e-17
8101.0596 1.90883e-17
8102.2593 2.04192e-17
8103.459 1.85399e-17
8104.6587 2.2633e-17
8105.8584 2.1336e-17
8107.0576 1.95342e-17
8108.2573 2.29389e-17
8109.457 1.83529e-17
8110.6567 2.10222e-17
8111.8564 2.16055e-17
8113.0562 1.95092e-17
8114.2559 2.1102e-17
8115.4556 1.71823e-17
8116.6553 2.3465e-17
8117.855 2.15673e-17
8119.0547 2.09571e-17
8120.2544 2.26666e-17
8121.4541 2.10878e-17
8122.6538 2.00232e-17
8123.8535 2.29074e-17
8125.0532 1.99246e-17
8126.2529 2.14273e-17
8127.4526 2.34938e-17
8128.6523 2.10288e-17
8129.8521 2.24239e-17
8131.0518 2.20127e-17
8132.252 1.89107e-17
8133.4517 2.03668e-17
8134.6514 1.94345e-17
8135.8511 1.94012e-17
8137.0508 2.21768e-17
8138.251 2.0527e-17
8139.4507 2.13718e-17
8140.6504 2.0027e-17
8141.8501 2.09101e-17
8143.0503 2.13509e-17
8144.25 2.08791e-17
8145.4497 1.81489e-17
8146.6499 2.24729e-17
8147.8496 2.17377e-17
8149.0493 2.08848e-17
8150.2495 2.01402e-17
8151.4492 1.76308e-17
8152.6494 2.09765e-17
8153.8491 1.83699e-17
8155.0493 2.0167e-17
8156.249 1.973e-17
8157.4487 1.99445e-17
8158.6489 2.02656e-17
8159.8486 1.98748e-17
8161.0488 1.95335e-17
8162.2485 2.26387e-17
8163.4487 2.01549e-17
8164.6489 2.22601e-17
8165.8486 1.96443e-17
8167.0488 2.22987e-17
8168.2485 2.11823e-17
8169.4487 2.16607e-17
8170.6484 2.15214e-17
8171.8486 2.09538e-17
8173.0488 1.72218e-17
8174.2485 1.93701e-17
8175.4487 1.82247e-17
8176.6489 1.71589e-17
8177.8486 2.3282e-17
8179.0488 1.95766e-17
8180.249 2.07277e-17
8181.4487 2.06262e-17
8182.6489 2.08784e-17
8183.8491 1.87416e-17
8185.0493 2.03079e-17
8186.249 1.87756e-17
8187.4492 2.08132e-17
8188.6494 2.15589e-17
8189.8496 2.05521e-17
8191.0498 1.98679e-17
8192.25 2.07727e-17
8193.4502 1.71682e-17
8194.6504 2.05024e-17
8195.8506 2.12341e-17
8197.0508 2.02946e-17
8198.25 2.06343e-17
8199.4502 2.14264e-17
8200.6504 1.99949e-17
8201.8506 2.04613e-17
8203.0508 2.05092e-17
8204.251 1.92131e-17
8205.4512 1.89113e-17
8206.6514 2.17176e-17
8207.8516 1.943e-17
8209.0518 2.09209e-17
8210.252 1.88313e-17
8211.4521 2.22378e-17
8212.6523 2.09317e-17
8213.8525 1.79975e-17
8215.0527 2.01998e-17
8216.2529 2.17124e-17
8217.4531 2.14282e-17
8218.6533 2.10307e-17
8219.8535 1.9806e-17
8221.0547 1.78904e-17
8222.2549 2.0532e-17
8223.4551 2.01884e-17
8224.6553 1.66145e-17
8225.8555 1.78542e-17
8227.0557 1.78093e-17
8228.2559 1.76326e-17
8229.4561 1.95237e-17
8230.6562 1.89491e-17
8231.8564 1.97379e-17
8233.0566 2.13238e-17
8234.2578 1.81083e-17
8235.458 2.12194e-17
8236.6582 1.86937e-17
8237.8584 2.04806e-17
8239.0586 2.04126e-17
8240.2588 2.03913e-17
8241.459 2.10521e-17
8242.6602 2.18708e-17
8243.8604 1.8736e-17
8245.0605 2.05526e-17
8246.2607 1.91871e-17
8247.4609 1.84329e-17
8248.6611 2.05306e-17
8249.8623 1.65316e-17
8251.0625 2.14049e-17
8252.2627 1.9083e-17
8253.4629 2.00331e-17
8254.6631 2.01452e-17
8255.8643 1.94289e-17
8257.0645 1.95596e-17
8258.2646 2.00747e-17
8259.4648 2.04183e-17
8260.665 1.93033e-17
8261.8662 1.96796e-17
8263.0664 1.94603e-17
8264.2666 1.93548e-17
8265.4678 2.29622e-17
8266.668 2.0634e-17
8267.8682 1.89625e-17
8269.0684 2.01613e-17
8270.2695 2.031e-17
8271.4697 1.99212e-17
8272.6699 2.00964e-17
8273.8701 2.05577e-17
8275.0713 2.04876e-17
8276.2715 2.03304e-17
8277.4717 2.14184e-17
8278.6729 2.0376e-17
8279.873 1.97892e-17
8281.0732 1.75029e-17
8282.2734 1.73701e-17
8283.4746 1.84146e-17
8284.6748 1.6682e-17
8285.875 2.33084e-17
8287.0762 2.11928e-17
8288.2764 2.52727e-17
8289.4766 2.75782e-17
8290.6777 2.01315e-17
8291.8779 1.7255e-17
8293.0781 2.04475e-17
8294.2793 1.97284e-17
8295.4795 2.04018e-17
8296.6807 2.33543e-17
8297.8809 2.01367e-17
8299.0811 1.71852e-17
8300.2822 1.23387e-17
8301.4824 2.15872e-17
8302.6826 1.93565e-17
8303.8838 1.82602e-17
8305.084 2.14034e-17
8306.2852 2.39506e-17
8307.4854 1.75868e-17
8308.6855 1.99421e-17
8309.8867 1.96574e-17
8311.0869 2.15813e-17
8312.2881 2.1611e-17
8313.4883 1.95476e-17
8314.6895 2.14322e-17
8315.8896 1.85396e-17
8317.0898 1.86688e-17
8318.291 1.95438e-17
8319.4912 1.94258e-17
8320.6924 2.03103e-17
8321.8926 1.79195e-17
8323.0938 1.87207e-17
8324.2939 2.09553e-17
8325.4951 1.95865e-17
8326.6953 2.10934e-17
8327.8965 1.96098e-17
8329.0967 2.07308e-17
8330.2969 1.8395e-17
8331.498 2.21254e-17
8332.6982 1.91924e-17
8333.8994 1.8745e-17
8335.0996 1.99468e-17
8336.3008 2.12555e-17
8337.501 2.0589e-17
8338.7021 1.9804e-17
8339.9023 1.87441e-17
8341.1035 2.2938e-17
8342.3037 2.03502e-17
8343.5049 2.66546e-17
8344.7051 2.01135e-17
8345.9062 2.12919e-17
8347.1064 2.206e-17
8348.3076 1.58126e-17
8349.5078 2.27811e-17
8350.709 1.7812e-17
8351.9102 2.07534e-17
8353.1104 1.60425e-17
8354.3115 2.20923e-17
8355.5117 2.16297e-17
8356.7129 2.11983e-17
8357.9131 2.1291e-17
8359.1143 2.02439e-17
8360.3145 2.0206e-17
8361.5156 1.78672e-17
8362.7168 1.51616e-17
8363.917 1.97484e-17
8365.1182 1.75194e-17
8366.3184 2.2044e-17
8367.5195 2.07843e-17
8368.7197 1.88716e-17
8369.9209 1.98251e-17
8371.1221 2.08077e-17
8372.3223 1.7594e-17
8373.5234 1.96441e-17
8374.7236 1.88846e-17
8375.9248 2.19274e-17
8377.126 2.07375e-17
8378.3262 1.98126e-17
8379.5273 2.26072e-17
8380.7275 1.60004e-17
8381.9287 1.97966e-17
8383.1299 1.87088e-17
8384.3301 2.0746e-17
8385.5312 2.41609e-17
8386.7314 2.12771e-17
8387.9326 1.78644e-17
8389.1338 2.15559e-17
8390.334 2.03341e-17
8391.5352 2.0564e-17
8392.7363 1.87224e-17
8393.9365 1.92005e-17
8395.1377 1.94335e-17
8396.3379 1.95659e-17
8397.5391 2.59823e-17
8398.7402 2.12169e-17
8399.9404 2.24725e-17
8401.1416 2.61621e-17
8402.3428 2.10957e-17
8403.543 2.03723e-17
8404.7441 1.67725e-17
8405.9453 2.13739e-17
8407.1455 1.88931e-17
8408.3467 2.25356e-17
8409.5479 1.95677e-17
8410.748 1.69728e-17
8411.9492 1.82121e-17
8413.1504 1.95612e-17
8414.3506 2.02594e-17
8415.5518 1.89093e-17
8416.7529 1.15295e-17
8417.9531 1.87508e-17
8419.1543 1.76825e-17
8420.3555 2.16409e-17
8421.5557 1.83438e-17
8422.7568 2.18028e-17
8423.958 2.27922e-17
8425.1582 1.95126e-17
8426.3594 1.8234e-17
8427.5605 1.72244e-17
8428.7607 2.14459e-17
8429.9619 2.03062e-17
8431.1631 2.01999e-17
8432.3643 2.12049e-17
8433.5645 2.23909e-17
8434.7656 2.10054e-17
8435.9668 2.19139e-17
8437.167 2.10732e-17
8438.3682 2.21975e-17
8439.5693 2.05061e-17
8440.7695 1.84032e-17
8441.9707 1.99519e-17
8443.1719 2.12168e-17
8444.373 1.95522e-17
8445.5732 1.87511e-17
8446.7744 1.74833e-17
8447.9756 1.58989e-17
8449.1758 1.71782e-17
8450.377 2.06885e-17
8451.5781 2.03411e-17
8452.7793 1.45357e-17
8453.9795 2.1669e-17
8455.1807 1.83053e-17
8456.3818 1.67888e-17
8457.583 1.75333e-17
8458.7832 1.80796e-17
8459.9844 1.87807e-17
8461.1855 1.80471e-17
8462.3857 1.81876e-17
8463.5869 2.09589e-17
8464.7881 1.47778e-17
8465.9893 1.2979e-17
8467.1895 1.95e-17
8468.3906 2.08308e-17
8469.5918 1.57661e-17
8470.793 1.90714e-17
8471.9932 1.91678e-17
8473.1943 1.82945e-17
8474.3955 1.93289e-17
8475.5967 1.74156e-17
8476.7969 1.8439e-17
8477.998 1.87061e-17
8479.1992 2.09858e-17
8480.4004 1.68893e-17
8481.6006 1.83788e-17
8482.8018 1.84821e-17
8484.0029 1.85299e-17
8485.2041 1.72086e-17
8486.4043 1.89057e-17
8487.6055 1.67623e-17
8488.8066 1.90297e-17
8490.0078 1.80964e-17
8491.208 2.26925e-17
8492.4092 1.91452e-17
8493.6104 2.00179e-17
8494.8115 1.96298e-17
8496.0117 1.9956e-17
8497.2129 1.68237e-17
8498.4141 1.80596e-17
8499.6152 1.95681e-17
8500.8154 1.97537e-17
8502.0166 2.01737e-17
8503.2178 1.72069e-17
8504.4189 2.35705e-17
8505.6191 2.09895e-17
8506.8203 2.25233e-17
8508.0215 2.17853e-17
8509.2227 2.10374e-17
8510.4229 2.21271e-17
8511.624 2.03676e-17
8512.8252 1.94644e-17
8514.0264 2.08667e-17
8515.2266 1.5683e-17
8516.4277 2.03482e-17
8517.6289 1.60284e-17
8518.8301 2.01805e-17
8520.0312 2.03347e-17
8521.2314 1.71388e-17
8522.4326 1.84857e-17
8523.6338 2.04603e-17
8524.835 1.47618e-17
8526.0352 1.99238e-17
8527.2363 1.67093e-17
8528.4375 1.89218e-17
8529.6387 2.10937e-17
8530.8389 1.83722e-17
8532.04 1.72296e-17
8533.2412 1.82625e-17
8534.4424 1.98219e-17
8535.6426 1.66834e-17
8536.8438 1.87072e-17
8538.0449 1.64251e-17
8539.2461 1.81432e-17
8540.4473 1.55768e-17
8541.6475 1.76012e-17
8542.8486 1.84392e-17
8544.0498 1.81094e-17
8545.251 1.85133e-17
8546.4512 2.11546e-17
8547.6523 1.79978e-17
8548.8535 1.85195e-17
8550.0547 1.65522e-17
8551.2549 2.00243e-17
8552.4561 1.82099e-17
8553.6572 1.70911e-17
8554.8584 2.0511e-17
8556.0586 1.87373e-17
8557.2598 1.90747e-17
8558.4609 1.81626e-17
8559.6621 1.59853e-17
8560.8623 1.78542e-17
8562.0635 1.70868e-17
8563.2646 1.97111e-17
8564.4658 1.52533e-17
8565.666 1.74384e-17
8566.8672 2.22221e-17
8568.0684 1.865e-17
8569.2695 1.99943e-17
8570.4697 1.65792e-17
8571.6709 1.78651e-17
8572.8721 1.86583e-17
8574.0732 1.87551e-17
8575.2734 1.9005e-17
8576.4746 1.73466e-17
8577.6758 1.83226e-17
8578.877 1.8602e-17
8580.0771 1.75775e-17
8581.2783 1.92386e-17
8582.4795 1.67197e-17
8583.6807 1.58618e-17
8584.8809 1.97316e-17
8586.082 1.6379e-17
8587.2832 1.79208e-17
8588.4834 1.55642e-17
8589.6846 1.53334e-17
8590.8857 1.76396e-17
8592.0869 1.59002e-17
8593.2871 1.88249e-17
8594.4883 1.73064e-17
8595.6895 1.66513e-17
8596.8906 1.976e-17
8598.0908 1.69512e-17
8599.292 1.74785e-17
8600.4932 1.89764e-17
8601.6934 1.6726e-17
8602.8945 1.7982e-17
8604.0957 1.96745e-17
8605.2969 1.85855e-17
8606.4971 1.98902e-17
8607.6982 1.86605e-17
8608.8994 1.81347e-17
8610.0996 1.80129e-17
8611.3008 1.67632e-17
8612.502 1.64853e-17
8613.7031 1.82508e-17
8614.9033 1.77308e-17
8616.1045 1.82446e-17
8617.3057 2.12415e-17
8618.5059 2.14465e-17
8619.707 1.70089e-17
8620.9082 1.72185e-17
8622.1094 1.73229e-17
8623.3096 2.38789e-17
8624.5107 1.56801e-17
8625.7119 2.07677e-17
8626.9121 2.22499e-17
8628.1133 2.44174e-17
8629.3145 2.08184e-17
8630.5146 1.8061e-17
8631.7158 1.68384e-17
8632.917 2.08269e-17
8634.1172 1.74464e-17
8635.3184 2.08805e-17
8636.5195 2.14111e-17
8637.7197 2.0427e-17
8638.9209 2.01763e-17
8640.1221 1.81949e-17
8641.3223 1.78455e-17
8642.5234 1.9413e-17
8643.7246 1.76928e-17
8644.9248 2.14756e-17
8646.126 1.76627e-17
8647.3271 2.0902e-17
8648.5273 1.82474e-17
8649.7285 1.62374e-17
8650.9297 1.72075e-17
8652.1299 2.11129e-17
8653.3311 2.10213e-17
8654.5312 2.02346e-17
8655.7324 2.17225e-17
8656.9336 2.1562e-17
8658.1338 1.70419e-17
8659.335 1.96368e-17
8660.5361 1.84281e-17
8661.7363 1.36838e-17
8662.9375 1.63357e-17
8664.1387 2.03466e-17
8665.3389 1.45953e-17
8666.54 1.89909e-17
8667.7402 2.01377e-17
8668.9414 2.17123e-17
8670.1426 2.18906e-17
8671.3428 1.81528e-17
8672.5439 1.6248e-17
8673.7441 1.7777e-17
8674.9453 1.55167e-17
8676.1465 1.59496e-17
8677.3467 1.91435e-17
8678.5479 2.04238e-17
8679.748 1.87777e-17
8680.9492 1.87675e-17
8682.1504 1.49896e-17
8683.3506 1.73493e-17
8684.5518 2.07761e-17
8685.752 1.67864e-17
8686.9531 1.91906e-17
8688.1533 1.79021e-17
8689.3545 1.7411e-17
8690.5557 1.60865e-17
8691.7559 2.00642e-17
8692.957 1.70518e-17
8694.1572 1.63811e-17
8695.3584 1.79859e-17
8696.5586 1.88475e-17
8697.7598 2.06745e-17
8698.96 1.7833e-17
8700.1611 1.95824e-17
8701.3623 1.97089e-17
8702.5625 1.66917e-17
8703.7637 1.62419e-17
8704.9639 1.75119e-17
8706.165 1.71292e-17
8707.3652 1.89681e-17
8708.5664 1.76379e-17
8709.7666 2.05416e-17
8710.9678 1.8053e-17
8712.168 1.91082e-17
8713.3691 1.8917e-17
8714.5693 1.96734e-17
8715.7705 2.14248e-17
8716.9707 1.92787e-17
8718.1719 1.86033e-17
8719.3721 1.82825e-17
8720.5732 1.88482e-17
8721.7734 1.63023e-17
8722.9746 1.83261e-17
8724.1748 1.79058e-17
8725.376 1.94748e-17
8726.5762 1.86103e-17
8727.7773 1.80687e-17
8728.9775 2.00655e-17
8730.1777 1.69901e-17
8731.3789 1.75745e-17
8732.5791 1.68052e-17
8733.7803 1.79584e-17
8734.9805 1.76937e-17
8736.1816 1.93527e-17
8737.3818 1.7799e-17
8738.583 1.75079e-17
8739.7832 1.70678e-17
8740.9844 1.90296e-17
8742.1846 1.81653e-17
8743.3848 1.66125e-17
8744.5859 2.07265e-17
8745.7861 1.9188e-17
8746.9873 1.66381e-17
8748.1875 1.96695e-17
8749.3877 1.97465e-17
8750.5889 1.77531e-17
8751.7891 1.66095e-17
8752.9902 1.6642e-17
8754.1904 1.96334e-17
8755.3906 2.11632e-17
8756.5918 2.14947e-17
8757.792 1.76745e-17
8758.9922 2.2126e-17
8760.1934 1.9969e-17
8761.3936 1.99472e-17
8762.5947 1.51035e-17
8763.7949 2.13568e-17
8764.9951 2.3196e-17
8766.1963 1.89924e-17
8767.3965 1.45735e-17
8768.5967 1.86272e-17
8769.7979 1.51191e-17
8770.998 2.07779e-17
8772.1982 1.52264e-17
8773.3994 1.62621e-17
8774.5996 1.85872e-17
8775.7998 2.0818e-17
8777.001 1.81553e-17
8778.2012 1.81313e-17
8779.4014 1.72407e-17
8780.6016 2.0901e-17
8781.8027 1.70631e-17
8783.0029 1.72616e-17
8784.2031 1.79403e-17
8785.4043 1.81016e-17
8786.6045 1.77761e-17
8787.8047 1.6696e-17
8789.0049 1.53585e-17
8790.2061 2.06621e-17
8791.4062 1.96504e-17
8792.6064 1.70691e-17
8793.8066 2.0662e-17
8795.0078 2.11025e-17
8796.208 1.72688e-17
8797.4082 1.62802e-17
8798.6084 1.9633e-17
8799.8096 1.77525e-17
8801.0098 1.81607e-17
8802.21 2.05046e-17
8803.4102 1.76407e-17
8804.6104 1.73445e-17
8805.8115 1.95176e-17
8807.0117 2.11497e-17
8808.2119 1.98594e-17
8809.4121 1.88038e-17
8810.6123 2.01653e-17
8811.8135 1.84947e-17
8813.0137 1.71501e-17
8814.2139 1.79912e-17
8815.4141 1.88758e-17
8816.6143 1.77601e-17
8817.8145 1.82893e-17
8819.0146 1.88394e-17
8820.2158 1.78608e-17
8821.416 1.66325e-17
8822.6162 1.44332e-17
8823.8164 1.89251e-17
8825.0166 2.11196e-17
8826.2168 2.49592e-17
8827.417 1.66811e-17
8828.6172 2.14922e-17
8829.8184 1.96066e-17
8831.0186 1.67977e-17
8832.2188 1.88015e-17
8833.4189 1.42566e-17
8834.6191 2.02184e-17
8835.8193 2.2126e-17
8837.0195 2.03218e-17
8838.2197 2.03811e-17
8839.4199 1.78491e-17
8840.6201 1.70322e-17
8841.8203 1.79514e-17
8843.0205 2.04621e-17
8844.2207 1.36563e-17
8845.4209 1.70864e-17
8846.6211 1.88955e-17
8847.8213 1.7255e-17
8849.0225 1.53529e-17
8850.2227 1.98986e-17
8851.4229 2.04129e-17
8852.623 1.78137e-17
8853.8223 1.82265e-17
8855.0225 1.8684e-17
8856.2227 2.0247e-17
8857.4229 1.94468e-17
8858.623 1.81833e-17
8859.8232 1.83291e-17
8861.0234 1.91901e-17
8862.2236 1.90611e-17
8863.4238 1.7387e-17
8864.624 1.95418e-17
8865.8242 1.8009e-17
8867.0244 1.61118e-17
8868.2246 1.78614e-17
8869.4248 1.9866e-17
8870.625 1.65701e-17
8871.8252 1.88039e-17
8873.0254 1.73818e-17
8874.2256 1.70452e-17
8875.4248 1.66132e-17
8876.625 2.06057e-17
8877.8252 1.62684e-17
8879.0254 1.66821e-17
8880.2256 1.95426e-17
8881.4258 2.13928e-17
8882.626 2.15352e-17
8883.8262 2.0913e-17
8885.0254 1.08768e-17
8886.2256 1.88024e-17
8887.4258 2.12499e-17
8888.626 2.11398e-17
8889.8262 1.31176e-17
8891.0264 2.23292e-17
8892.2256 1.8686e-17
8893.4258 2.06525e-17
8894.626 1.81261e-17
8895.8262 1.819e-17
8897.0264 1.88564e-17
8898.2256 1.89319e-17
8899.4258 1.68239e-17
8900.626 1.60622e-17
8901.8262 1.47964e-17
8903.0254 2.45818e-17
8904.2256 1.90699e-17
8905.4258 2.09666e-17
8906.626 1.44137e-17
8907.8252 1.84095e-17
8909.0254 1.68967e-17
8910.2256 1.76782e-17
8911.4248 1.83612e-17
8912.625 1.89686e-17
8913.8252 1.82452e-17
8915.0244 1.85236e-17
8916.2246 1.45432e-17
8917.4248 1.79299e-17
8918.624 1.68103e-17
8919.8242 1.25687e-17
8921.0244 2.48313e-17
8922.2236 2.06446e-17
8923.4238 1.99348e-17
8924.624 1.71585e-17
8925.8232 1.8108e-17
8927.0234 1.71686e-17
8928.2236 1.84451e-17
8929.4229 1.6031e-17
8930.623 1.83282e-17
8931.8223 1.67949e-17
8933.0225 1.76121e-17
8934.2227 1.93863e-17
8935.4219 1.86803e-17
8936.6221 1.91775e-17
8937.8213 1.86207e-17
8939.0215 1.95233e-17
8940.2207 1.75923e-17
8941.4209 1.7078e-17
8942.6201 1.89706e-17
8943.8203 1.80779e-17
8945.0205 1.93245e-17
8946.2197 1.58594e-17
8947.4199 1.68679e-17
8948.6191 1.77624e-17
8949.8193 1.83359e-17
8951.0186 2.03633e-17
8952.2188 1.69881e-17
8953.418 1.94176e-17
8954.6182 2.00611e-17
8955.8174 2.10228e-17
8957.0166 2.31119e-17
8958.2168 1.98729e-17
8959.416 2.31489e-17
8960.6162 1.48412e-17
8961.8154 1.5806e-17
8963.0156 1.95789e-17
8964.2148 2.0605e-17
8965.4141 1.80692e-17
8966.6143 1.85513e-17
8967.8135 1.7465e-17
8969.0137 1.6581e-17
8970.2129 1.72758e-17
8971.4121 1.81711e-17
8972.6123 1.82948e-17
8973.8115 1.81134e-17
8975.0107 1.83361e-17
8976.2109 1.88303e-17
8977.4102 2.07612e-17
8978.6094 1.71806e-17
8979.8096 1.83275e-17
8981.0088 1.97937e-17
8982.208 2.11588e-17
8983.4072 1.76231e-17
8984.6074 1.68141e-17
8985.8066 1.59619e-17
8987.0059 1.88983e-17
8988.2061 1.88995e-17
8989.4053 1.87374e-17
8990.6045 1.57069e-17
8991.8037 2.11275e-17
8993.0039 1.84872e-17
8994.2031 1.96383e-17
8995.4023 1.72697e-17
8996.6016 2.08246e-17
8997.8008 1.99159e-17
8999.001 1.55687e-17
9000.2002 1.76517e-17
9001.3994 2.06198e-17
9002.5986 1.23266e-17
9003.7979 2.09661e-17
9004.9971 1.59598e-17
9006.1973 1.73848e-17
9007.3965 1.81226e-17
9008.5957 2.13868e-17
9009.7949 1.89889e-17
9010.9941 2.08924e-17
9012.1934 1.59467e-17
9013.3926 1.84488e-17
9014.5918 1.78539e-17
9015.791 1.9442e-17
9016.9912 1.75712e-17
9018.1904 1.67692e-17
9019.3896 1.67592e-17
9020.5889 1.96146e-17
9021.7881 1.91362e-17
9022.9873 1.97448e-17
9024.1865 1.81401e-17
9025.3857 1.81202e-17
9026.585 1.703e-17
9027.7842 1.93636e-17
9028.9834 1.71128e-17
9030.1826 1.82497e-17
9031.3818 1.63956e-17
9032.5811 1.67375e-17
9033.7803 1.58215e-17
9034.9795 1.90931e-17
9036.1787 1.68036e-17
9037.3779 1.96981e-17
9038.5771 1.78585e-17
9039.7754 1.87361e-17
9040.9746 1.87487e-17
9042.1738 1.78884e-17
9043.373 1.9054e-17
9044.5723 1.55755e-17
9045.7715 1.90085e-17
9046.9707 1.6234e-17
9048.1699 1.40365e-17
9049.3682 1.75284e-17
9050.5674 2.0584e-17
9051.7666 1.92423e-17
9052.9658 1.84846e-17
9054.165 1.71739e-17
9055.3643 1.93557e-17
9056.5625 1.83632e-17
9057.7617 1.75485e-17
9058.9609 1.70744e-17
9060.1602 1.56615e-17
9061.3594 1.8493e-17
9062.5576 1.65351e-17
9063.7568 1.64977e-17
9064.9561 1.68907e-17
9066.1553 1.8794e-17
9067.3535 1.84915e-17
9068.5527 1.57038e-17
9069.752 1.61035e-17
9070.9502 1.59092e-17
9072.1494 1.60524e-17
9073.3486 1.60763e-17
9074.5469 1.79066e-17
9075.7461 1.67566e-17
9076.9453 1.82988e-17
9078.1436 1.59718e-17
9079.3428 2.02586e-17
9080.542 1.75295e-17
9081.7402 1.5899e-17
9082.9395 1.69032e-17
9084.1377 1.68996e-17
9085.3369 1.83493e-17
9086.5361 1.64322e-17
9087.7344 1.73932e-17
9088.9336 1.87634e-17
9090.1318 1.70932e-17
9091.3311 1.75276e-17
9092.5293 1.90371e-17
9093.7285 1.55938e-17
9094.9268 1.94128e-17
9096.126 1.56705e-17
9097.3242 1.52939e-17
9098.5234 1.56996e-17
9099.7217 1.84015e-17
9100.9209 2.03329e-17
9102.1191 1.89162e-17
9103.3184 1.76502e-17
9104.5166 1.4517e-17
9105.7158 1.75603e-17
9106.9141 1.78537e-17
9108.1123 1.70344e-17
9109.3115 1.44806e-17
9110.5098 1.68411e-17
9111.709 1.61662e-17
9112.9072 1.76239e-17
9114.1055 1.69467e-17
9115.3047 1.86516e-17
9116.5029 1.72537e-17
9117.7012 1.64341e-17
9118.9004 1.6338e-17
9120.0986 1.80469e-17
9121.2969 1.62299e-17
9122.4961 1.73989e-17
9123.6943 1.77471e-17
9124.8926 1.71855e-17
9126.0908 1.86952e-17
9127.29 1.59732e-17
9128.4883 1.64078e-17
9129.6865 1.71231e-17
9130.8848 1.6298e-17
9132.084 1.64864e-17
9133.2822 1.74575e-17
9134.4805 1.732e-17
9135.6787 1.71791e-17
9136.8779 1.65545e-17
9138.0762 1.63895e-17
9139.2744 1.66716e-17
9140.4727 1.4049e-17
9141.6709 1.56813e-17
9142.8691 1.58051e-17
9144.0674 1.80184e-17
9145.2666 1.80227e-17
9146.4648 1.6682e-17
9147.6631 1.6805e-17
9148.8613 1.72754e-17
9150.0596 1.8829e-17
9151.2578 1.72741e-17
9152.4561 1.69724e-17
9153.6543 1.68513e-17
9154.8525 1.70625e-17
9156.0508 1.75547e-17
9157.249 1.66269e-17
9158.4473 1.70948e-17
9159.6455 1.65018e-17
9160.8438 1.69335e-17
9162.042 1.76578e-17
9163.2402 1.44094e-17
9164.4385 1.89434e-17
9165.6367 1.72189e-17
9166.835 1.69895e-17
9168.0332 1.63934e-17
9169.2314 1.58727e-17
9170.4297 1.70332e-17
9171.6279 1.55715e-17
9172.8252 1.63121e-17
9174.0234 1.85907e-17
9175.2217 1.85224e-17
9176.4199 1.60615e-17
9177.6182 1.82623e-17
9178.8164 1.77277e-17
9180.0146 1.52067e-17
9181.2119 1.60779e-17
9182.4102 1.7492e-17
9183.6084 1.56166e-17
9184.8066 1.71207e-17
9186.0049 1.98781e-17
9187.2021 1.69891e-17
9188.4004 1.91694e-17
9189.5986 1.72133e-17
9190.7969 1.57028e-17
9191.9941 1.73863e-17
9193.1924 1.48723e-17
9194.3906 1.63337e-17
9195.5879 1.81765e-17
9196.7861 1.6313e-17
9197.9844 1.66652e-17
9199.1816 1.78735e-17
9200.3799 1.59109e-17
9201.5781 1.85819e-17
9202.7754 1.67623e-17
9203.9736 1.64918e-17
9205.1709 1.63362e-17
9206.3691 1.75633e-17
9207.5674 1.59054e-17
9208.7646 1.43596e-17
9209.9629 1.64488e-17
9211.1602 1.56022e-17
9212.3584 1.66378e-17
9213.5557 1.65514e-17
9214.7539 1.71336e-17
9215.9512 1.86056e-17
9217.1494 1.73495e-17
9218.3467 1.86091e-17
9219.5449 1.70103e-17
9220.7422 1.83273e-17
9221.9404 1.61564e-17
9223.1377 1.62666e-17
9224.3359 1.5003e-17
9225.5332 1.7526e-17
9226.7305 1.74084e-17
9227.9287 1.85298e-17
9229.126 1.74924e-17
9230.3242 1.6927e-17
9231.5215 1.84438e-17
9232.7188 1.76396e-17
9233.917 1.63911e-17
9235.1143 1.62181e-17
9236.3115 1.80947e-17
9237.5098 1.47236e-17
9238.707 1.75167e-17
9239.9043 1.62933e-17
9241.1016 1.63502e-17
9242.2998 1.74907e-17
9243.4971 1.61697e-17
9244.6943 1.66737e-17
9245.8916 1.65163e-17
9247.0898 1.57068e-17
9248.2871 1.43501e-17
9249.4844 1.77784e-17
9250.6816 1.70155e-17
9251.8789 1.8667e-17
9253.0771 1.67392e-17
9254.2744 1.65203e-17
9255.4717 1.3955e-17
9256.6689 1.71748e-17
9257.8662 1.48342e-17
9259.0635 1.39917e-17
9260.2607 1.69702e-17
9261.458 1.67799e-17
9262.6553 1.64075e-17
9263.8525 1.63562e-17
9265.0508 1.87233e-17
9266.248 1.71785e-17
9267.4443 1.82634e-17
9268.6426 1.6352e-17
9269.8398 1.65853e-17
9271.0361 1.69056e-17
9272.2344 1.70625e-17
9273.4307 1.59654e-17
9274.6279 1.53225e-17
9275.8252 1.51951e-17
9277.0225 1.69005e-17
9278.2197 1.72542e-17
9279.417 1.94226e-17
9280.6143 1.55414e-17
9281.8115 1.5976e-17
9283.0088 1.4888e-17
9284.2061 1.43854e-17
9285.4023 1.46369e-17
9286.5996 1.4696e-17
9287.7969 1.5659e-17
9288.9941 1.70779e-17
9290.1914 1.64436e-17
9291.3887 1.43882e-17
9292.585 1.77036e-17
9293.7822 1.73787e-17
9294.9795 1.47034e-17
9296.1768 1.94936e-17
9297.373 1.63638e-17
9298.5703 1.56105e-17
9299.7676 1.65265e-17
9300.9639 1.45499e-17
9302.1611 1.63006e-17
9303.3584 1.76595e-17
9304.5547 1.51091e-17
9305.752 1.61966e-17
9306.9492 1.96419e-17
9308.1455 1.74346e-17
9309.3428 2.3409e-17
9310.5391 2.2125e-17
9311.7363 9.95171e-18
9312.9336 1.09453e-17
9314.1299 1.59094e-17
9315.3271 1.74076e-17
9316.5234 1.54639e-17
9317.7207 1.29935e-17
9318.917 1.36126e-17
9320.1143 1.65715e-17
9321.3105 1.42166e-17
9322.5078 1.69585e-17
9323.7041 1.17683e-17
9324.9014 1.52455e-17
9326.0977 1.29239e-17
9327.2939 1.09436e-17
9328.4912 1.22816e-17
9329.6875 2.19424e-17
9330.8848 1.77838e-17
9332.0811 1.89573e-17
9333.2773 1.88648e-17
9334.4746 1.40622e-17
9335.6709 1.84302e-17
9336.8672 1.41141e-17
9338.0645 1.86223e-17
9339.2607 1.80882e-17
9340.457 1.56873e-17
9341.6543 1.31835e-17
9342.8506 1.53102e-17
9344.0469 1.70838e-17
9345.2432 1.5863e-17
9346.4404 1.52428e-17
9347.6367 1.49334e-17
9348.833 1.47575e-17
9350.0293 1.42822e-17
9351.2256 1.65026e-17
9352.4219 1.82402e-17
9353.6191 1.77574e-17
9354.8154 1.7141e-17
9356.0117 1.35471e-17
9357.208 1.72022e-17
9358.4043 1.63778e-17
9359.6006 1.54864e-17
9360.7969 1.59906e-17
9361.9932 1.71487e-17
9363.1895 1.70694e-17
9364.3857 1.82083e-17
9365.582 1.7841e-17
9366.7783 1.86762e-17
9367.9746 1.48324e-17
9369.1709 1.9605e-17
9370.3672 1.57908e-17
9371.5635 9.384440000000001e-18
9372.7598 1.54682e-17
9373.9561 1.39516e-17
9375.1523 2.3634e-18
9376.3486 1.4817e-17
9377.5449 2.82415e-17
9378.7412 2.06676e-17
9379.9365 1.02141e-17
9381.1328 1.63229e-17
9382.3291 1.3431e-17
9383.5254 1.6333e-17
9384.7217 1.61715e-17
9385.918 1.60503e-17
9387.1133 1.80404e-17
9388.3096 1.47446e-17
9389.5059 1.15621e-17
9390.7021 1.46393e-17
9391.8975 1.51881e-17
9393.0938 1.82958e-17
9394.29 1.40123e-17
9395.4854 1.57938e-17
9396.6816 1.56492e-17
9397.8779 1.43734e-17
9399.0732 2.02721e-17
9400.2695 2.62026e-17
9401.4658 1.71103e-17
9402.6611 1.89418e-17
9403.8574 1.65013e-17
9405.0527 1.42206e-17
9406.249 1.60043e-17
9407.4453 1.70215e-17
9408.6406 1.6705e-17
9409.8369 1.56476e-17
9411.0322 1.66543e-17
9412.2285 1.44523e-17
9413.4238 1.63724e-17
9414.6201 1.68249e-17
9415.8154 1.53093e-17
9417.0117 1.43782e-17
9418.207 1.7823e-17
9419.4023 1.74117e-17
9420.5986 1.67585e-17
9421.7939 1.32901e-17
9422.9902 1.48777e-17
9424.1855 1.36221e-17
9425.3809 1.83406e-17
9426.5771 1.60901e-17
9427.7725 1.76951e-17
9428.9678 1.77962e-17
9430.1641 1.21949e-17
9431.3594 1.45679e-17
9432.5547 1.51579e-17
9433.75 1.64655e-17
9434.9453 1.88001e-17
9436.1416 1.54502e-17
9437.3369 1.83497e-17
9438.5322 1.4625e-17
9439.7275 3.2232e-17
9440.9238 1.94648e-17
9442.1191 2.43351e-17
9443.3145 1.24024e-17
9444.5098 1.32557e-17
9445.7051 1.41944e-17
9446.9004 1.48508e-17
9448.0957 1.52513e-17
9449.291 1.65299e-17
9450.4863 1.32846e-17
9451.6816 1.74213e-17
9452.877 1.48516e-17
9454.0723 1.39046e-17
9455.2676 1.88622e-17
9456.4629 2.67283e-17
9457.6582 1.52326e-17
9458.8535 1.32394e-17
9460.0488 1.19916e-17
9461.2441 2.05127e-17
9462.4395 1.03754e-17
9463.6348 1.30246e-17
9464.8301 1.61798e-17
9466.0254 1.60909e-17
9467.2207 1.46913e-17
9468.415 1.5204e-17
9469.6104 1.73214e-17
9470.8057 1.54758e-17
9472.001 1.01744e-17
9473.1963 1.89731e-17
9474.3906 1.3387e-17
9475.5859 1.34088e-17
9476.7812 1.63942e-17
9477.9766 2.6764e-17
9479.1709 2.29712e-17
9480.3662 1.52395e-17
9481.5615 1.21211e-17
9482.7559 1.57199e-17
9483.9512 1.47632e-17
9485.1465 1.37034e-17
9486.3408 1.41679e-17
9487.5361 1.58116e-17
9488.7314 1.42488e-17
9489.9258 1.28206e-17
9491.1211 1.56919e-17
9492.3154 1.54619e-17
9493.5107 1.74149e-17
9494.7051 1.88738e-17
9495.9004 1.54063e-17
9497.0947 1.64595e-17
9498.29 1.54365e-17
9499.4844 1.22894e-17
9500.6797 2.15664e-17
9501.874 2.2316e-17
9503.0693 1.62902e-17
9504.2637 1.72137e-17
9505.458 1.53242e-17
9506.6533 1.71806e-17
9507.8477 1.43262e-17
9509.042 1.33209e-17
9510.2373 1.51736e-17
9511.4316 1.34812e-17
9512.626 1.54142e-17
9513.8213 1.60529e-17
9515.0156 1.55769e-17
9516.21 1.54933e-17
9517.4043 1.48628e-17
9518.5996 2.08737e-17
9519.7939 1.46125e-17
9520.9883 2.18592e-17
9522.1826 2.24442e-17
9523.377 1.69185e-17
9524.5723 1.38955e-17
9525.7666 1.71319e-17
9526.9609 1.4107e-17
9528.1553 1.64111e-17
9529.3496 1.61708e-17
9530.5439 1.84631e-17
9531.7383 1.38136e-17
9532.9326 1.5462e-17
9534.127 1.52552e-17
9535.3213 1.55921e-17
9536.5156 1.90106e-17
9537.71 1.46053e-17
9538.9043 1.96145e-17
9540.0986 1.67943e-17
9541.293 1.87198e-17
9542.4873 1.57229e-17
9543.6816 1.73333e-17
9544.876 1.69573e-17
9546.0703 1.64152e-17
9547.2646 1.86337e-17
9548.458 1.48008e-17
9549.6523 1.94302e-17
9550.8467 1.82061e-17
9552.041 1.78212e-17
9553.2354 2.02865e-17
9554.4287 2.02895e-17
9555.623 1.93027e-17
9556.8174 1.40537e-17
9558.0107 1.5841e-17
9559.2051 1.53043e-17
9560.3994 1.28192e-17
9561.5938 1.5351e-17
9562.7871 1.83646e-17
9563.9814 1.37473e-17
9565.1758 1.86588e-17
9566.3691 1.15196e-17
9567.5635 9.17146e-18
9568.7568 1.51445e-17
9569.9512 1.66263e-17
9571.1445 1.32713e-17
9572.3389 1.57535e-17
9573.5322 1.64007e-17
9574.7266 1.71822e-17
9575.9199 1.78039e-17
9577.1143 1.58974e-17
9578.3076 1.7956e-17
9579.502 1.47852e-17
9580.6953 1.71566e-17
9581.8896 1.77603e-17
9583.083 1.51798e-17
9584.2764 1.77639e-17
9585.4707 1.69109e-17
9586.6641 1.75395e-17
9587.8574 1.86968e-17
9589.0518 1.54929e-17
9590.2451 1.68261e-17
9591.4385 1.68117e-17
9592.6318 1.81118e-17
9593.8262 1.60071e-17
9595.0195 1.76054e-17
9596.2129 1.58267e-17
9597.4062 1.70049e-17
9598.6006 1.72917e-17
9599.7939 1.26516e-17
9600.9873 1.55424e-17
9602.1807 1.70601e-17
9603.374 1.48783e-17
9604.5674 1.84932e-17
9605.7607 1.79054e-17
9606.9541 1.98123e-17
9608.1475 1.38062e-17
9609.3408 1.52339e-17
9610.5342 1.6839e-17
9611.7275 1.51076e-17
9612.9209 1.49062e-17
9614.1143 1.54252e-17
9615.3076 1.60224e-17
9616.501 1.4796e-17
9617.6943 1.82174e-17
9618.8877 1.05823e-17
9620.0811 1.90799e-17
9621.2744 1.9157e-17
9622.4678 1.44233e-17
9623.6602 1.47109e-17
9624.8535 1.54993e-17
9626.0469 1.56412e-17
9627.2402 1.59144e-17
9628.4336 1.46361e-17
9629.626 1.41812e-17
9630.8193 1.48516e-17
9632.0127 1.46903e-17
9633.2061 1.40304e-17
9634.3984 1.27028e-17
9635.5918 1.61533e-17
9636.7852 1.45007e-17
9637.9775 1.63255e-17
9639.1709 1.58932e-17
9640.3633 1.50573e-17
9641.5566 1.61465e-17
9642.749 1.66759e-17
9643.9424 1.73381e-17
9645.1357 1.96631e-17
9646.3281 1.33812e-17
9647.5215 1.59873e-17
9648.7139 1.27016e-17
9649.9072 1.38165e-17
9651.0996 1.30898e-17
9652.292 1.48815e-17
9653.4854 1.4845e-17
9654.6777 1.52139e-17
9655.8711 1.70414e-17
9657.0635 1.65706e-17
9658.2559 1.30897e-17
9659.4492 1.39824e-17
9660.6416 1.54832e-17
9661.834 1.72122e-17
9663.0273 1.46237e-17
9664.2197 1.51239e-17
9665.4121 1.27071e-17
9666.6045 1.54865e-17
9667.7969 1.635e-17
9668.9902 1.43129e-17
9670.1826 1.34927e-17
9671.375 1.5901e-17
9672.5674 1.46915e-17
9673.7598 1.60207e-17
9674.9521 1.32052e-17
9676.1445 1.32063e-17
9677.3369 1.7154e-17
9678.5303 1.52794e-17
9679.7227 1.79639e-17
9680.915 1.74759e-17
9682.1074 1.31939e-17
9683.2998 1.57364e-17
9684.4922 1.83938e-17
9685.6846 1.68419e-17
9686.876 1.77814e-17
9688.0684 1.47168e-17
9689.2607 1.38912e-17
9690.4531 1.59099e-17
9691.6455 1.58584e-17
9692.8379 1.45288e-17
9694.0303 1.70182e-17
9695.2217 1.50133e-17
9696.4141 1.52217e-17
9697.6064 1.64543e-17
9698.7988 1.2309e-17
9699.9902 1.25514e-17
9701.1826 1.87337e-17
9702.375 1.82193e-17
9703.5674 1.69685e-17
9704.7588 1.75712e-17
9705.9512 1.45199e-17
9707.1436 1.55438e-17
9708.335 1.58405e-17
9709.5273 1.96924e-17
9710.7188 1.63312e-17
9711.9111 1.19254e-17
9713.1025 1.72315e-17
9714.2949 1.458e-17
9715.4863 1.3482e-17
9716.6787 1.43073e-17
9717.8701 1.75617e-17
9719.0625 1.69071e-17
9720.2539 1.70857e-17
9721.4463 1.65073e-17
9722.6377 2.07869e-17
9723.8291 1.33464e-17
9725.0215 1.25461e-17
9726.2129 1.60566e-17
9727.4053 1.55033e-17
9728.5967 1.39746e-17
9729.7881 1.78091e-17
9730.9795 1.70564e-17
9732.1719 1.58161e-17
9733.3633 1.60467e-17
9734.5547 1.47363e-17
9735.7461 1.2184e-17
9736.9375 1.89523e-17
9738.1299 1.788e-17
9739.3213 1.24111e-17
9740.5127 1.54429e-17
9741.7041 1.44252e-17
9742.8955 1.49735e-17
9744.0869 1.56628e-17
9745.2783 1.65878e-17
9746.4697 1.8711e-17
9747.6611 1.50252e-17
9748.8525 1.64643e-17
9750.0439 1.48755e-17
9751.2354 1.507e-17
9752.4268 1.68281e-17
9753.6182 1.6277e-17
9754.8096 1.71413e-17
9756.001 1.59902e-17
9757.1924 1.50591e-17
9758.3828 1.45348e-17
9759.5742 1.51401e-17
9760.7656 1.42821e-17
9761.957 1.46882e-17
9763.1484 1.3357e-17
9764.3389 1.68374e-17
9765.5303 1.47149e-17
9766.7217 1.53628e-17
9767.9131 1.57858e-17
9769.1035 1.69826e-17
9770.2949 1.44507e-17
9771.4854 1.66563e-17
9772.6768 1.73365e-17
9773.8682 1.62698e-17
9775.0586 1.71385e-17
9776.25 1.52552e-17
9777.4404 1.44985e-17
9778.6318 1.69672e-17
9779.8223 1.60171e-17
9781.0137 1.33737e-17
9782.2041 1.32258e-17
9783.3955 1.45941e-17
9784.5859 1.44994e-17
9785.7773 1.41357e-17
9786.9678 1.20655e-17
9788.1582 1.12157e-17
9789.3496 2.17547e-17
9790.54 1.62518e-17
9791.7305 1.40286e-17
9792.9219 2.19755e-17
9794.1123 1.23673e-17
9795.3027 1.02712e-17
9796.4932 1.80124e-17
9797.6846 1.55665e-17
9798.875 1.80777e-17
9800.0654 1.70067e-17
9801.2559 1.42003e-17
9802.4463 1.73181e-17
9803.6367 1.19565e-17
9804.8281 1.54378e-17
9806.0186 1.56185e-17
9807.209 1.47685e-17
9808.3994 1.25851e-17
9809.5898 1.7686e-17
9810.7803 1.5607e-17
9811.9707 1.608e-17
9813.1611 1.4208e-17
9814.3516 1.3838e-17
9815.542 1.46459e-17
9816.7324 1.34217e-17
9817.9219 1.56238e-17
9819.1123 1.1275e-17
9820.3027 1.80662e-17
9821.4932 1.38191e-17
9822.6836 1.55409e-17
9823.874 1.47225e-17
9825.0635 1.52716e-17
9826.2539 1.56528e-17
9827.4443 1.63069e-17
9828.6348 1.65034e-17
9829.8242 1.82982e-17
9831.0146 1.66845e-17
9832.2051 1.47819e-17
9833.3945 1.7069e-17
9834.585 1.25861e-17
9835.7744 1.39151e-17
9836.9648 1.59509e-17
9838.1553 1.62659e-17
9839.3447 1.62063e-17
9840.5352 1.56335e-17
9841.7246 1.51963e-17
9842.915 1.44719e-17
9844.1045 1.61351e-17
9845.2939 1.72308e-17
9846.4844 1.7873e-17
9847.6738 1.28561e-17
9848.8643 1.60132e-17
9850.0537 1.77761e-17
9851.2432 1.78671e-17
9852.4326 1.29807e-17
9853.623 1.60569e-17
9854.8125 1.51433e-17
9856.002 1.55895e-17
9857.1924 1.53829e-17
9858.3818 1.51887e-17
9859.5713 1.38089e-17
9860.7607 1.37721e-17
9861.9502 1.42937e-17
9863.1396 1.43006e-17
9864.3301 1.53973e-17
9865.5195 1.35095e-17
9866.709 1.52097e-17
9867.8984 1.56574e-17
9869.0879 1.24026e-17
9870.2773 1.18148e-17
9871.4668 1.25697e-17
9872.6562 1.49251e-17
9873.8457 1.58182e-17
9875.0352 1.64568e-17
9876.2236 8.24062e-18
9877.4131 1.56515e-17
9878.6025 1.52475e-17
9879.792 1.42572e-17
9880.9814 1.55406e-17
9882.1709 1.45113e-17
9883.3594 1.55505e-17
9884.5488 1.51411e-17
9885.7383 1.42761e-17
9886.9277 1.21171e-17
9888.1162 1.48223e-17
9889.3057 1.34991e-17
9890.4951 1.27694e-17
9891.6836 1.16494e-17
9892.873 1.42615e-17
9894.0615 1.43098e-17
9895.251 1.7382e-17
9896.4404 1.57472e-17
9897.6289 1.7176e-17
9898.8184 1.38729e-17
9900.0068 1.191e-17
9901.1953 1.48508e-17
9902.3848 1.56198e-17
9903.5732 1.42967e-17
9904.7627 1.43697e-17
9905.9512 1.33158e-17
9907.1396 1.34236e-17
9908.3291 1.40284e-17
9909.5176 1.26403e-17
9910.7061 1.73437e-17
9911.8955 1.20314e-17
9913.084 1.4598e-17
9914.2725 2.08686e-17
9915.4609 1.82759e-17
9916.6504 1.69e-17
9917.8389 1.02328e-17
9919.0273 1.45695e-17
9920.2158 1.28474e-17
9921.4043 1.5474e-17
9922.5928 1.36166e-17
9923.7812 1.42884e-17
9924.9697 1.50153e-17
9926.1582 1.53196e-17
9927.3467 1.48451e-17
9928.5352 1.52602e-17
9929.7236 1.50547e-17
9930.9121 1.52091e-17
9932.1006 1.57098e-17
9933.2891 1.34066e-17
9934.4775 1.48182e-17
9935.666 1.3765e-17
9936.8535 1.62948e-17
9938.042 1.54626e-17
9939.2305 1.34345e-17
9940.4189 1.46037e-17
9941.6064 1.99044e-17
9942.7949 1.6966e-17
9943.9834 1.72716e-17
9945.1719 1.1365e-17
9946.3594 8.24555e-18
9947.5479 2.31488e-17
9948.7354 1.44524e-17
9949.9238 3.82779e-18
9951.1113 1.43216e-17
9952.2998 1.41459e-17
9953.4883 1.82241e-17
9954.6758 1.47613e-17
9955.8633 2.17359e-17
9957.0518 1.54074e-17
9958.2393 1.75315e-17
9959.4277 1.62416e-17
9960.6152 7.273730000000001e-18
9961.8027 1.65414e-17
9962.9912 1.3317e-17
9964.1787 1.40993e-17
9965.3662 1.25577e-17
9966.5547 1.28362e-17
9967.7422 1.37015e-17
9968.9297 1.43186e-17
9970.1172 1.4012e-17
9971.3047 1.58077e-17
9972.4932 1.19561e-17
9973.6807 1.53372e-17
9974.8682 1.2702e-17
9976.0557 1.25154e-17
9977.2432 1.59614e-17
9978.4307 1.17987e-17
9979.6182 1.30972e-17
9980.8057 1.62231e-17
9981.9932 1.69765e-17
9983.1807 1.48359e-17
9984.3682 1.41335e-17
9985.5557 1.35137e-17
9986.7432 1.49513e-17
9987.9297 1.43959e-17
9989.1172 1.28878e-17
9990.3047 1.64839e-17
9991.4922 1.41344e-17
9992.6797 1.1975e-17
9993.8662 1.5276e-17
9995.0537 1.49559e-17
9996.2412 1.55847e-17
9997.4277 1.44698e-17
9998.6152 1.12437e-17
9999.8027 1.6993e-17
10000.99 1.63175e-17
10002.177 1.21401e-17
10003.364 1.40114e-17
10004.551 1.55168e-17
10005.738 1.10781e-17
10006.925 1.33585e-17
10008.112 1.34538e-17
10009.299 7.046230000000001e-18
10010.486 2.22026e-17
10011.673 2.29243e-17
10012.859 2.02883e-17
10014.046 1.99179e-17
10015.233 4.9305700000000006e-18
10016.42 8.73054e-18
10017.607 1.59028e-17
10018.794 1.39987e-17
10019.98 1.46881e-17
10021.167 1.65753e-17
10022.354 1.72769e-17
10023.54 2.10223e-17
10024.727 1.54647e-17
10025.914 1.84713e-17
10027.1 1.32868e-17
10028.287 1.16068e-17
10029.473 9.698390000000001e-18
10030.66 3.0006300000000004e-18
10037.779 1.48881e-17
10038.965 1.53198e-17
10040.151 1.77555e-17
10041.338 1.44886e-17
10042.524 1.45362e-17
10043.71 1.96794e-17
10044.897 1.33244e-17
10046.083 1.47374e-17
10047.269 1.25314e-17
10048.455 1.40333e-17
10049.641 1.57809e-17
10050.828 1.28942e-17
10052.014 1.38889e-17
10053.2 1.59507e-17
10054.386 1.66684e-17
10055.572 1.27898e-17
10056.758 1.78883e-17
10057.944 1.62506e-17
10059.13 1.80109e-17
10060.316 1.19564e-17
10061.502 1.38687e-17
10062.688 1.21631e-17
10063.873 8.37179e-18
10065.059 1.66243e-17
10066.245 1.7299e-17
10067.431 1.53456e-17
10068.617 1.26075e-17
10069.803 1.4154e-17
10070.988 1.07263e-17
10072.174 1.41529e-17
10073.36 1.69018e-17
10074.545 1.37944e-17
10075.731 1.43718e-17
10076.917 1.39407e-17
10078.102 1.2297e-17
10079.288 1.4092e-17
10080.473 1.66341e-17
10081.659 2.45592e-17
10082.844 1.85089e-17
10084.03 2.11467e-17
10085.215 1.47342e-17
10086.401 7.442590000000001e-18
10087.586 1.35919e-17
10088.771 1.41409e-17
10089.957 1.52335e-17
10091.142 1.66066e-17
10092.327 1.01314e-17
10093.513 1.62702e-17
10094.698 9.364140000000001e-18
10095.883 1.42717e-17
10097.068 1.39412e-17
10098.253 1.28166e-17
10099.439 1.30868e-17
10100.624 1.17059e-17
10101.809 1.2202e-17
10102.994 1.83501e-17
10104.179 1.52914e-17
10105.364 1.71217e-17
10106.549 1.5808e-17
10107.734 1.48762e-17
10108.919 1.60971e-17
10110.104 1.5767e-17
10111.289 1.43533e-17
10112.473 1.37644e-17
10113.658 1.19069e-17
10114.843 1.26651e-17
10116.028 1.41866e-17
10117.213 1.30038e-17
10118.397 1.50261e-17
10119.582 1.49162e-17
10120.767 2.61469e-17
10121.952 1.28348e-17
10123.136 7.934110000000001e-18
10124.321 1.50269e-17
10125.505 1.06417e-17
10126.69 2.6328200000000002e-18
10127.874 9.21478e-18
10129.059 7.934240000000001e-18
10130.243 1.22099e-17
10131.428 1.16072e-17
10132.612 1.35128e-17
10133.797 1.21205e-17
10134.981 1.20377e-17
10136.166 1.35018e-17
10137.35 1.35137e-17
10138.534 1.3675e-17
10139.718 1.47703e-17
10140.903 1.76235e-17
10142.087 1.21379e-17
10143.271 1.75523e-17
10144.455 1.18737e-17
10145.64 1.41199e-17
10146.824 1.37148e-17
10148.008 1.52318e-17
10149.192 1.83684e-17
10150.376 8.968790000000001e-18
10151.56 6.874880000000001e-18
10152.744 1.9793e-17
10153.928 5.100290000000001e-18
10155.112 7.864870000000001e-18
10156.296 1.61913e-17
10157.48 1.26803e-17
10158.664 1.07158e-17
10159.847 1.36389e-17
10161.031 1.13968e-17
10162.215 1.22177e-17
10163.399 1.49543e-17
10164.582 1.14063e-17
10165.766 1.3992e-17
10166.95 1.29408e-17
10168.133 1.88947e-17
10169.317 -4.7075199999999994e-20
10170.501 2.15166e-18
10171.684 1.7246600000000002e-18
10172.868 1.68803e-17
10174.051 9.903550000000002e-18
10175.235 1.03111e-17
10176.418 1.39079e-17
10177.602 7.20616e-18
10178.785 1.22401e-17
10179.969 1.25543e-17
10181.152 1.45229e-17
10182.335 7.954950000000001e-18
10183.519 1.45788e-17
10184.702 1.39831e-17
10185.885 1.02436e-17
10187.068 6.56683e-18
10188.252 1.05018e-17
10189.435 6.7666100000000004e-18
10190.618 1.91248e-17
10191.801 1.43946e-17
10192.984 9.523710000000001e-18
10194.167 1.11794e-17
10195.35 1.29074e-17
10196.533 1.54591e-17
10197.716 9.86277e-18
10198.899 1.52205e-17
10200.082 1.55636e-17
10201.265 1.5928e-17
10202.448 1.60207e-17
10203.631 1.39614e-17
10204.814 1.30714e-17
10205.996 1.50985e-17
10207.179 9.81293e-18
10208.362 9.02252e-18
10209.545 1.74698e-17
10210.727 1.26563e-17
10211.91 1.31519e-17
10213.092 2.67269e-17
10214.275 1.81347e-17
10215.458 2.2245300000000004e-18
10216.64 1.08776e-17
10217.823 1.11699e-17
10219.005 1.31711e-17
10220.188 1.46029e-17
10221.37 1.36762e-17
10222.552 1.43262e-17
10223.735 9.90947e-18
10224.917 1.60833e-17
10226.099 2.01761e-17
10227.282 3.92032e-18
10228.464 2.9429e-18
10229.646 1.79587e-17
10230.828 1.14198e-17
10232.011 1.4127e-17
10233.193 1.02235e-17
10234.375 6.7473800000000005e-18
10235.557 1.50771e-17
10236.739 1.6659e-17
10237.921 1.58924e-17
10239.103 1.62806e-17
10240.285 1.45272e-17
10241.467 1.07172e-17
10242.649 1.41732e-17
10243.831 1.23565e-17
10245.013 1.76685e-17
10246.195 1.69008e-17
10247.376 1.68372e-17
10248.558 1.3389e-17
10249.74 1.36211e-17
10250.922 1.21948e-17
10252.103 1.33442e-17
10253.285 1.33587e-17
10254.467 1.65312e-17
10255.648 1.28178e-17
10256.83 2.0465e-17
10258.011 1.18426e-17
10259.193 1.43203e-17
10260.374 1.77201e-17
10261.556 1.15678e-17
10262.737 1.14535e-17
10263.919 1.13244e-17
10265.1 1.54602e-17
10266.281 1.93128e-17
10267.463 1.70771e-17
10268.644 1.69007e-17
10269.825 8.63026e-18
10271.006 6.18332e-18
10272.188 1.45585e-17
10273.369 8.49147e-18
10274.55 1.21398e-17
10275.731 1.57037e-17
10276.912 1.23517e-17
10278.093 6.9274300000000006e-18
10279.274 1.54137e-17
10280.455 1.09072e-17
10281.636 6.17143e-18
10282.817 1.64183e-17
10283.998 2.66284e-17
10285.179 1.45144e-17
10286.359 -1.35199e-17
10287.54 -1.49315e-17
10288.721 1.61316e-17
10289.902 2.0594e-18
10291.083 8.89087e-18
10292.263 8.72235e-18
10293.444 1.56821e-17
10294.624 1.21706e-17
